Date      - 2021-09-30T13:24:57
Vref      = 3.319 V
Us(+5V)   = 4.912 V
Temp_SiPM = 22.552 C
Temp_CPU  = 31.564 C
U_LED_on  = 2.85 V, (402nm)
+U_SiPM   = 3.289 V
-U_SiPM   = -23.716 V
U_SiPM    = 27.005 V
I_SiPM    = 2.137 uA
No t[s] T[C] U+_SiPM[V] U-_SiPM[V] Vert.angl[grad]. Hor.angl[grad] I_SiPM[uA] I0_SiPM[uA] 
1 13.636 22.536 3.289 -23.712 90 0 2.123 1.201
2 15.64 22.497 3.289 -23.717 90 2 2.862 1.22
3 17.648 22.359 3.289 -23.717 90 4 4.248 1.215
4 19.654 22.482 3.289 -23.714 90 6 5.254 1.206
5 21.658 22.455 3.288 -23.714 90 8 6.205 1.221
6 23.66 22.484 3.289 -23.717 90 10 7.025 1.183
7 25.665 22.463 3.288 -23.716 90 12 7.715 1.214
8 27.674 22.411 3.288 -23.711 90 14 8.375 1.194
9 29.675 22.389 3.289 -23.712 90 16 8.909 1.208
10 31.684 22.361 3.289 -23.716 90 18 9.546 1.193
11 33.686 22.3 3.289 -23.719 90 20 9.963 1.208
12 35.691 22.264 3.289 -23.71 90 22 10.343 1.199
13 37.698 22.203 3.289 -23.715 90 24 10.787 1.177
14 39.703 22.337 3.289 -23.712 90 26 11.023 1.171
15 41.71 22.371 3.289 -23.717 90 28 11.239 1.202
16 43.715 22.342 3.289 -23.713 90 30 11.697 1.152
17 45.717 22.312 3.289 -23.718 90 32 11.908 1.123
18 47.721 22.307 3.289 -23.717 90 34 12.201 1.209
19 49.727 22.282 3.288 -23.717 90 36 12.385 1.173
20 51.735 22.264 3.289 -23.71 90 38 12.481 1.091
21 53.74 22.192 3.289 -23.709 90 40 12.827 1.127
22 55.742 22.122 3.288 -23.718 90 42 12.966 1.177
23 57.745 22.325 3.289 -23.711 90 44 13.22 1.217
24 59.752 22.238 3.289 -23.715 90 46 13.312 1.174
25 61.758 22.278 3.289 -23.716 90 48 13.449 1.178
26 63.761 22.252 3.288 -23.712 90 50 13.673 1.188
27 65.765 22.264 3.288 -23.717 90 52 13.804 1.215
28 67.771 22.173 3.289 -23.716 90 54 13.991 1.197
29 69.777 22.093 3.288 -23.715 90 56 14.078 1.211
30 71.78 22.103 3.289 -23.713 90 58 14.186 1.181
31 73.783 22.251 3.289 -23.718 90 60 14.291 1.142
32 75.791 22.239 3.288 -23.717 90 62 14.341 1.178
33 77.796 22.12 3.288 -23.72 90 64 14.43 1.168
34 79.796 22.207 3.288 -23.717 90 66 14.573 1.154
35 81.802 22.215 3.288 -23.711 90 68 14.622 1.198
36 83.807 22.19 3.289 -23.709 90 70 14.666 1.16
37 85.812 22.11 3.288 -23.713 90 72 14.648 1.176
38 87.818 22.083 3.289 -23.712 90 74 14.735 1.216
39 89.819 22.107 3.289 -23.717 90 76 14.781 1.115
40 91.823 22.166 3.288 -23.716 90 78 14.779 1.16
41 93.828 22.178 3.289 -23.718 90 80 14.824 1.185
42 95.832 21.956 3.288 -23.719 90 82 14.822 1.167
43 97.839 22.188 3.288 -23.716 90 84 14.901 1.196
44 99.842 22.171 3.289 -23.716 90 86 14.87 1.164
45 101.848 22.169 3.289 -23.713 90 88 14.789 1.131
46 103.849 22.052 3.289 -23.722 90 90 14.836 1.178
47 105.856 22.008 3.289 -23.715 90 92 14.827 1.165
48 107.859 22.036 3.289 -23.716 90 94 14.817 1.196
49 109.864 22.118 3.288 -23.719 90 96 14.737 1.205
50 111.867 22.121 3.289 -23.71 90 98 14.743 1.183
51 113.869 22.092 3.289 -23.718 90 100 14.713 1.131
52 115.874 22.082 3.288 -23.717 90 102 14.599 1.117
53 117.88 22.023 3.288 -23.714 90 104 14.564 1.17
54 119.884 22.033 3.289 -23.716 90 106 14.52 1.148
55 121.886 22.145 3.289 -23.721 90 108 14.465 1.126
56 123.889 22.048 3.289 -23.714 90 110 14.361 1.085
57 125.894 22.041 3.289 -23.717 90 112 14.295 1.151
58 127.897 22.03 3.288 -23.716 90 114 14.163 1.134
59 129.902 22.001 3.288 -23.714 90 116 14.041 1.138
60 131.906 22.068 3.289 -23.716 90 118 13.938 1.16
61 133.911 22.08 3.288 -23.72 90 120 13.771 1.121
62 135.913 22.035 3.288 -23.719 90 122 13.609 1.147
63 137.918 22.017 3.288 -23.718 90 124 13.386 1.152
64 139.921 22.043 3.289 -23.713 90 126 13.214 1.143
65 141.923 21.994 3.289 -23.718 90 128 13.047 1.116
66 143.929 22.048 3.288 -23.716 90 130 12.893 1.172
67 145.931 21.981 3.289 -23.715 90 132 12.604 1.16
68 147.936 22.029 3.289 -23.718 90 134 12.369 1.141
69 149.937 21.929 3.289 -23.713 90 136 12.167 1.174
70 151.945 22.059 3.289 -23.715 90 138 11.911 1.178
71 153.945 21.996 3.289 -23.713 90 140 11.687 1.074
72 155.95 22.044 3.289 -23.718 90 142 11.394 1.138
73 157.952 21.914 3.288 -23.722 90 144 11.117 1.183
74 159.957 22.073 3.289 -23.715 90 146 10.85 1.159
75 161.96 22.02 3.289 -23.713 90 148 10.518 1.148
76 163.961 21.91 3.289 -23.717 90 150 10.192 1.131
77 165.967 21.956 3.289 -23.722 90 152 9.865 1.146
78 167.97 21.973 3.289 -23.716 90 154 9.417 1.141
79 169.973 21.951 3.288 -23.716 90 156 9.076 1.146
80 171.976 22.005 3.289 -23.714 90 158 8.359 1.127
81 173.977 21.92 3.289 -23.714 90 160 7.676 1.117
82 175.981 21.919 3.289 -23.716 90 162 7.066 1.116
83 177.984 21.996 3.289 -23.718 90 164 6.561 1.114
84 179.989 21.994 3.289 -23.715 90 166 5.824 1.121
85 181.991 22.062 3.289 -23.716 90 168 5.258 1.119
86 183.995 21.897 3.289 -23.715 90 170 4.732 1.12
87 185.997 21.893 3.289 -23.721 90 172 3.869 1.107
88 188.001 21.932 3.289 -23.724 90 174 3.03 1.141
89 190.003 21.928 3.289 -23.718 90 176 2.175 1.154
90 192.006 22.002 3.289 -23.715 90 178 1.605 1.139
91 194.011 21.974 3.289 -23.72 90 180 1.618 1.131
92 196.012 21.986 3.289 -23.721 90 178 1.625 1.142
93 198.015 21.897 3.289 -23.719 90 176 2.134 1.123
94 200.019 21.932 3.289 -23.719 90 174 2.858 1.136
95 202.021 21.899 3.289 -23.715 90 172 3.777 1.135
96 204.022 22.019 3.289 -23.716 90 170 4.685 1.133
97 206.025 21.946 3.289 -23.714 90 168 5.203 1.121
98 208.029 21.801 3.289 -23.721 90 166 5.844 1.15
99 210.033 21.96 3.288 -23.722 90 164 6.472 1.145
100 212.033 21.935 3.289 -23.721 90 162 6.994 1.169
101 214.036 21.866 3.289 -23.714 90 160 7.68 1.091
102 216.04 21.91 3.289 -23.715 90 158 8.401 1.119
103 218.041 21.921 3.289 -23.713 90 156 9.012 1.131
104 220.044 21.83 3.289 -23.725 90 154 9.436 1.143
105 222.047 21.866 3.289 -23.719 90 152 9.798 1.135
106 224.049 21.918 3.288 -23.72 90 150 10.225 1.117
107 226.051 21.875 3.289 -23.717 90 148 10.483 1.122
108 228.055 21.984 3.289 -23.719 90 146 10.812 1.087
109 230.056 21.928 3.289 -23.712 90 144 11.095 1.108
110 232.059 21.9 3.288 -23.722 90 142 11.402 1.1
111 234.061 21.876 3.288 -23.719 90 140 11.641 1.096
112 236.062 21.795 3.289 -23.719 90 138 11.899 1.066
113 238.065 21.942 3.289 -23.714 90 136 12.169 1.026
114 240.068 21.875 3.289 -23.714 90 134 12.369 1.101
115 242.071 21.87 3.288 -23.708 90 132 12.612 1.07
116 244.072 21.919 3.289 -23.721 90 130 12.89 1.091
117 246.074 21.964 3.288 -23.715 90 128 13.006 1.111
118 248.078 21.925 3.288 -23.719 90 126 13.205 1.137
119 250.08 21.788 3.289 -23.72 90 124 13.436 1.136
120 252.082 21.841 3.289 -23.72 90 122 13.634 1.1
121 254.084 21.836 3.289 -23.714 90 120 13.746 1.122
122 256.084 21.838 3.289 -23.709 90 118 13.879 1.104
123 258.088 21.88 3.289 -23.717 90 116 13.962 1.101
124 260.089 21.868 3.288 -23.717 90 114 14.172 1.115
125 262.091 21.883 3.289 -23.714 90 112 14.313 1.13
126 264.093 21.798 3.289 -23.719 90 110 14.335 1.074
127 266.095 21.855 3.288 -23.717 90 108 14.488 1.123
128 268.097 21.811 3.289 -23.715 90 106 14.527 1.169
129 270.1 21.798 3.289 -23.714 90 104 14.567 1.133
130 272.101 21.898 3.288 -23.715 90 102 14.535 1.129
131 274.102 21.923 3.289 -23.716 90 100 14.697 1.132
132 276.104 21.839 3.288 -23.716 90 98 14.732 1.103
133 278.105 21.82 3.288 -23.72 90 96 14.863 1.085
134 280.107 21.816 3.289 -23.717 90 94 14.82 1.13
135 282.108 21.898 3.288 -23.722 90 92 14.86 1.104
136 284.11 21.856 3.289 -23.722 90 90 14.831 1.121
137 286.112 21.761 3.289 -23.717 90 88 14.881 1.059
138 288.114 21.821 3.288 -23.717 90 86 14.905 1.147
139 290.115 21.902 3.288 -23.715 90 84 14.854 1.086
140 292.117 21.866 3.288 -23.719 90 82 14.845 1.128
141 294.119 21.823 3.289 -23.718 90 80 14.843 1.078
142 296.12 21.795 3.288 -23.721 90 78 14.889 1.115
143 298.121 21.834 3.289 -23.716 90 76 14.775 1.061
144 300.124 21.798 3.288 -23.714 90 74 14.797 1.008
145 302.125 21.804 3.288 -23.718 90 72 14.713 1.076
146 304.125 21.871 3.288 -23.717 90 70 14.661 1.005
147 306.127 21.764 3.288 -23.721 90 68 14.671 1.045
148 308.128 21.845 3.289 -23.717 90 66 14.586 1.092
149 310.129 21.755 3.289 -23.718 90 64 14.534 1.104
150 312.131 21.733 3.289 -23.718 90 62 14.424 1.113
151 314.132 21.886 3.288 -23.72 90 60 14.349 1.003
152 316.133 21.791 3.289 -23.717 90 58 14.285 1.051
153 318.134 21.76 3.288 -23.715 90 56 14.163 1.069
154 320.135 21.842 3.289 -23.716 90 54 14.052 1.118
155 322.137 21.739 3.289 -23.717 90 52 13.787 1.106
156 324.138 21.888 3.289 -23.721 90 50 13.678 1.116
157 326.138 21.709 3.288 -23.718 90 48 13.565 1.048
158 328.14 21.704 3.289 -23.72 90 46 13.408 1.084
159 330.141 21.788 3.289 -23.718 90 44 13.238 1.097
160 332.142 21.789 3.289 -23.717 90 42 13.1 1.054
161 334.143 21.826 3.288 -23.719 90 40 12.9 1.008
162 336.143 21.784 3.289 -23.718 90 38 12.69 1.079
163 338.144 21.869 3.289 -23.716 90 36 12.422 0.98
164 340.145 21.78 3.289 -23.72 90 34 12.2 1.052
165 342.146 21.755 3.289 -23.719 90 32 11.997 1.015
166 344.147 21.734 3.288 -23.72 90 30 11.71 1.064
167 346.148 21.856 3.288 -23.718 90 28 11.382 1.08
168 348.149 21.763 3.289 -23.715 90 26 11.106 1.07
169 350.149 21.743 3.288 -23.722 90 24 10.798 1.084
170 352.151 21.852 3.289 -23.713 90 22 10.439 1.044
171 354.152 21.708 3.289 -23.716 90 20 10.033 1.058
172 356.152 21.794 3.289 -23.716 90 18 9.498 1.093
173 358.152 21.726 3.289 -23.72 90 16 8.846 1.082
174 360.153 21.686 3.289 -23.719 90 14 8.363 1.091
175 362.153 21.692 3.288 -23.714 90 12 7.591 1.03
176 364.154 21.719 3.288 -23.72 90 10 6.959 1.064
177 366.154 21.756 3.289 -23.718 90 8 6.109 1.098
178 368.154 21.724 3.289 -23.718 90 6 5.132 1.065
179 370.155 21.818 3.289 -23.716 90 4 4.024 1.065
180 372.155 21.773 3.289 -23.717 90 2 2.85 1.078
181 374.156 21.8 3.288 -23.719 90 0 2.053 1.06
182 389.262 21.795 3.288 -23.72 120 0 2.399 1.066
183 391.264 21.692 3.289 -23.716 120 2 3.155 1.044
184 393.27 21.756 3.289 -23.717 120 4 4.584 1.054
185 395.279 21.906 3.288 -23.713 120 6 5.705 1.062
186 397.281 21.825 3.289 -23.723 120 8 6.746 1.063
187 399.287 21.862 3.289 -23.718 120 10 7.511 1.078
188 401.295 21.678 3.289 -23.725 120 12 8.158 1.063
189 403.296 21.688 3.288 -23.713 120 14 8.878 1.077
190 405.301 21.753 3.288 -23.721 120 16 9.348 1.042
191 407.308 21.674 3.289 -23.715 120 18 9.993 1.045
192 409.312 21.709 3.289 -23.711 120 20 10.428 1.06
193 411.32 21.77 3.288 -23.719 120 22 10.782 1.054
194 413.325 21.669 3.289 -23.721 120 24 11.028 1.062
195 415.327 21.754 3.289 -23.714 120 26 11.367 1.086
196 417.332 21.726 3.289 -23.714 120 28 11.471 1.085
197 419.339 21.64 3.289 -23.717 120 30 11.878 1.102
198 421.343 21.777 3.289 -23.711 120 32 12.183 1.076
199 423.349 21.666 3.289 -23.715 120 34 12.403 1.041
200 425.352 21.722 3.288 -23.721 120 36 12.591 1.03
201 427.357 21.753 3.288 -23.712 120 38 12.751 0.965
202 429.364 21.749 3.289 -23.717 120 40 13.024 1.111
203 431.367 21.701 3.289 -23.719 120 42 13.293 1.074
204 433.372 21.721 3.289 -23.715 120 44 13.424 1.046
205 435.379 21.785 3.289 -23.719 120 46 13.517 1.093
206 437.384 21.73 3.288 -23.718 120 48 13.569 0.98
207 439.388 21.702 3.288 -23.717 120 50 13.77 1.022
208 441.393 21.76 3.289 -23.716 120 52 13.925 1.114
209 443.395 21.687 3.289 -23.72 120 54 14.061 1.045
210 445.402 21.666 3.288 -23.716 120 56 14.163 1.034
211 447.405 21.698 3.289 -23.72 120 58 14.18 1.061
212 449.409 21.744 3.289 -23.719 120 60 14.364 1.094
213 451.414 21.582 3.289 -23.718 120 62 14.503 1.039
214 453.419 21.645 3.288 -23.717 120 64 14.563 1.092
215 455.424 21.716 3.289 -23.719 120 66 14.573 1.105
216 457.429 21.637 3.289 -23.719 120 68 14.657 1.114
217 459.43 21.72 3.289 -23.718 120 70 14.754 1.037
218 461.436 21.726 3.289 -23.713 120 72 14.741 1.068
219 463.441 21.633 3.289 -23.72 120 74 14.845 1.075
220 465.447 21.633 3.289 -23.717 120 76 14.848 1.063
221 467.448 21.716 3.289 -23.72 120 78 14.854 0.954
222 469.456 21.701 3.288 -23.719 120 80 14.869 1.095
223 471.459 21.663 3.289 -23.722 120 82 14.804 1.082
224 473.462 21.671 3.289 -23.716 120 84 14.917 1.083
225 475.469 21.714 3.288 -23.719 120 86 14.927 1.068
226 477.47 21.696 3.289 -23.717 120 88 14.849 1.022
227 479.473 21.682 3.289 -23.719 120 90 14.857 1.088
228 481.48 21.715 3.289 -23.718 120 92 14.823 1.069
229 483.485 21.708 3.289 -23.721 120 94 14.848 1.037
230 485.49 21.61 3.289 -23.719 120 96 14.749 1.074
231 487.492 21.608 3.288 -23.717 120 98 14.716 1.037
232 489.496 21.625 3.288 -23.719 120 100 14.737 1.092
233 491.499 21.734 3.288 -23.719 120 102 14.682 1.029
234 493.503 21.705 3.288 -23.715 120 104 14.563 1.038
235 495.508 21.629 3.288 -23.719 120 106 14.508 0.959
236 497.512 21.77 3.289 -23.717 120 108 14.404 1.042
237 499.513 21.632 3.289 -23.719 120 110 14.269 1.068
238 501.519 21.591 3.289 -23.717 120 112 14.29 1.078
239 503.522 21.769 3.289 -23.721 120 114 14.214 1.066
240 505.527 21.771 3.288 -23.715 120 116 14.021 1.068
241 507.533 21.784 3.289 -23.711 120 118 13.945 1.049
242 509.535 21.662 3.288 -23.72 120 120 13.791 1.038
243 511.537 21.725 3.289 -23.721 120 122 13.634 1.086
244 513.54 21.63 3.289 -23.714 120 124 13.386 1.074
245 515.545 21.703 3.289 -23.72 120 126 13.212 1.016
246 517.548 21.807 3.289 -23.717 120 128 13.014 0.998
247 519.555 21.628 3.289 -23.716 120 130 12.853 1.042
248 521.556 21.645 3.288 -23.718 120 132 12.617 1.037
249 523.557 21.804 3.289 -23.716 120 134 12.436 1.039
250 525.564 21.694 3.289 -23.719 120 136 12.194 1.067
251 527.566 21.731 3.289 -23.721 120 138 11.95 1.008
252 529.57 21.76 3.289 -23.717 120 140 11.631 1.05
253 531.573 21.71 3.289 -23.718 120 142 11.443 1.047
254 533.577 21.76 3.289 -23.716 120 144 11.177 1.05
255 535.58 21.639 3.289 -23.716 120 146 10.882 1.04
256 537.584 21.718 3.289 -23.718 120 148 10.588 1.054
257 539.586 21.742 3.288 -23.717 120 150 10.353 1.042
258 541.588 21.727 3.289 -23.722 120 152 9.982 1.026
259 543.592 21.677 3.288 -23.723 120 154 9.558 1.042
260 545.595 21.644 3.289 -23.723 120 156 9.283 0.993
261 547.599 21.609 3.289 -23.719 120 158 8.661 0.998
262 549.603 21.702 3.289 -23.72 120 160 7.866 0.978
263 551.606 21.705 3.289 -23.718 120 162 7.276 0.99
264 553.608 21.675 3.289 -23.719 120 164 6.802 0.994
265 555.61 21.64 3.289 -23.717 120 166 6.036 0.973
266 557.614 21.649 3.289 -23.723 120 168 5.359 0.974
267 559.617 21.741 3.289 -23.717 120 170 4.695 1.003
268 561.621 21.662 3.289 -23.716 120 172 3.828 0.965
269 563.623 21.712 3.289 -23.722 120 174 3.024 0.961
270 565.626 21.633 3.289 -23.717 120 176 2.095 0.934
271 567.629 21.723 3.289 -23.72 120 178 1.354 0.94
272 569.633 21.671 3.289 -23.719 120 180 1.387 0.995
273 571.636 21.652 3.289 -23.721 120 178 1.368 0.967
274 573.637 21.73 3.288 -23.715 120 176 2.027 0.959
275 575.643 21.741 3.289 -23.72 120 174 2.904 0.947
276 577.644 21.68 3.289 -23.721 120 172 3.732 0.987
277 579.647 21.671 3.289 -23.72 120 170 4.643 0.987
278 581.648 21.692 3.289 -23.718 120 168 5.271 0.986
279 583.653 21.701 3.289 -23.719 120 166 6.03 0.975
280 585.655 21.665 3.289 -23.725 120 164 6.756 0.956
281 587.657 21.657 3.289 -23.717 120 162 7.249 0.978
282 589.659 21.677 3.289 -23.719 120 160 7.891 0.975
283 591.662 21.65 3.289 -23.718 120 158 8.524 0.948
284 593.665 21.6 3.288 -23.716 120 156 9.195 0.977
285 595.666 21.751 3.289 -23.719 120 154 9.527 0.956
286 597.67 21.681 3.289 -23.718 120 152 9.916 0.967
287 599.672 21.639 3.289 -23.72 120 150 10.276 0.973
288 601.674 21.637 3.289 -23.721 120 148 10.517 0.963
289 603.677 21.636 3.289 -23.717 120 146 10.802 0.964
290 605.679 21.675 3.289 -23.717 120 144 11.092 0.974
291 607.682 21.701 3.289 -23.719 120 142 11.362 0.995
292 609.683 21.701 3.288 -23.721 120 140 11.644 0.975
293 611.688 21.642 3.288 -23.716 120 138 11.892 0.963
294 613.688 21.677 3.289 -23.719 120 136 12.108 0.931
295 615.691 21.721 3.288 -23.718 120 134 12.382 0.987
296 617.692 21.682 3.288 -23.72 120 132 12.607 0.969
297 619.696 21.617 3.289 -23.72 120 130 12.799 0.995
298 621.697 21.666 3.289 -23.721 120 128 12.97 1.003
299 623.699 21.564 3.289 -23.717 120 126 13.189 0.987
300 625.701 21.654 3.289 -23.725 120 124 13.352 0.985
301 627.704 21.611 3.288 -23.713 120 122 13.444 0.989
302 629.705 21.638 3.289 -23.717 120 120 13.677 0.996
303 631.71 21.721 3.289 -23.72 120 118 13.777 0.973
304 633.71 21.692 3.289 -23.72 120 116 13.938 0.992
305 635.712 21.597 3.289 -23.714 120 114 14.065 0.978
306 637.713 21.696 3.289 -23.716 120 112 14.139 0.985
307 639.716 21.59 3.288 -23.719 120 110 14.253 0.945
308 641.717 21.599 3.289 -23.723 120 108 14.317 0.972
309 643.719 21.574 3.288 -23.72 120 106 14.448 0.971
310 645.721 21.638 3.289 -23.721 120 104 14.433 0.978
311 647.722 21.684 3.288 -23.719 120 102 14.521 0.95
312 649.724 21.638 3.289 -23.721 120 100 14.581 0.988
313 651.725 21.734 3.288 -23.72 120 98 14.636 0.936
314 653.727 21.613 3.289 -23.719 120 96 14.669 0.941
315 655.729 21.584 3.289 -23.719 120 94 14.762 0.967
316 657.734 21.687 3.288 -23.717 120 92 14.762 0.904
317 659.734 21.628 3.289 -23.718 120 90 14.711 0.898
318 661.734 21.627 3.289 -23.718 120 88 14.763 0.939
319 663.736 21.671 3.288 -23.719 120 86 14.81 0.961
320 665.737 21.628 3.289 -23.713 120 84 14.866 0.974
321 667.739 21.65 3.289 -23.721 120 82 14.856 0.901
322 669.74 21.619 3.288 -23.715 120 80 14.808 0.893
323 671.742 21.514 3.289 -23.718 120 78 14.742 0.927
324 673.743 21.729 3.289 -23.722 120 76 14.723 0.937
325 675.745 21.631 3.289 -23.719 120 74 14.717 1
326 677.746 21.617 3.289 -23.72 120 72 14.712 0.953
327 679.747 21.648 3.288 -23.718 120 70 14.603 0.965
328 681.749 21.588 3.289 -23.723 120 68 14.628 0.973
329 683.75 21.67 3.289 -23.719 120 66 14.554 0.955
330 685.751 21.65 3.289 -23.718 120 64 14.549 0.925
331 687.752 21.633 3.289 -23.719 120 62 14.418 0.895
332 689.753 21.659 3.289 -23.722 120 60 14.338 0.979
333 691.755 21.592 3.288 -23.72 120 58 14.219 0.967
334 693.756 21.596 3.289 -23.714 120 56 14.166 0.96
335 695.757 21.629 3.289 -23.722 120 54 14.103 0.993
336 697.759 21.591 3.289 -23.714 120 52 13.962 0.926
337 699.759 21.492 3.289 -23.716 120 50 13.767 0.973
338 701.76 21.668 3.288 -23.713 120 48 13.612 0.896
339 703.761 21.593 3.289 -23.719 120 46 13.515 0.976
340 705.762 21.607 3.288 -23.714 120 44 13.357 0.951
341 707.763 21.57 3.289 -23.723 120 42 13.181 0.973
342 709.764 21.685 3.289 -23.725 120 40 13.075 0.924
343 711.765 21.68 3.289 -23.722 120 38 12.761 0.964
344 713.766 21.575 3.288 -23.723 120 36 12.524 0.979
345 715.767 21.692 3.288 -23.717 120 34 12.423 0.973
346 717.768 21.603 3.289 -23.72 120 32 12.032 0.969
347 719.768 21.659 3.288 -23.719 120 30 11.847 0.943
348 721.769 21.696 3.289 -23.719 120 28 11.554 0.958
349 723.77 21.712 3.289 -23.713 120 26 11.282 0.959
350 725.771 21.629 3.289 -23.721 120 24 11.041 0.932
351 727.771 21.593 3.288 -23.72 120 22 10.673 0.967
352 729.772 21.625 3.289 -23.716 120 20 10.365 0.927
353 731.772 21.579 3.289 -23.715 120 18 9.883 0.95
354 733.773 21.652 3.288 -23.724 120 16 9.216 0.99
355 735.773 21.554 3.289 -23.722 120 14 8.691 0.974
356 737.774 21.648 3.289 -23.72 120 12 7.975 0.942
357 739.775 21.639 3.289 -23.72 120 10 7.337 0.923
358 741.775 21.65 3.289 -23.722 120 8 6.631 0.945
359 743.775 21.653 3.289 -23.715 120 6 5.626 0.933
360 745.776 21.755 3.288 -23.717 120 4 4.516 0.973
361 747.776 21.625 3.289 -23.722 120 2 3.165 0.953
362 749.777 21.624 3.289 -23.718 120 0 2.274 0.956
363 761.561 21.698 3.289 -23.718 135 0 1.877 0.901
364 763.568 21.625 3.289 -23.721 135 2 2.892 0.943
365 765.572 21.586 3.289 -23.721 135 4 4.506 0.965
366 767.574 21.583 3.289 -23.723 135 6 5.804 0.927
367 769.58 21.615 3.289 -23.72 135 8 6.941 0.901
368 771.589 21.603 3.288 -23.716 135 10 7.686 0.968
369 773.591 21.686 3.288 -23.717 135 12 8.292 0.954
370 775.595 21.571 3.289 -23.72 135 14 8.825 0.954
371 777.602 21.65 3.289 -23.719 135 16 9.328 0.946
372 779.606 21.546 3.289 -23.72 135 18 9.791 0.916
373 781.613 21.701 3.289 -23.718 135 20 10.313 0.945
374 783.618 21.653 3.289 -23.725 135 22 10.692 0.973
375 785.621 21.617 3.288 -23.718 135 24 10.962 0.956
376 787.631 21.675 3.289 -23.718 135 26 11.242 0.918
377 789.633 21.667 3.289 -23.716 135 28 11.47 0.931
378 791.637 21.617 3.289 -23.715 135 30 11.745 0.91
379 793.644 21.538 3.289 -23.713 135 32 12.03 0.955
380 795.647 21.537 3.289 -23.717 135 34 12.284 0.933
381 797.653 21.667 3.289 -23.719 135 36 12.45 0.986
382 799.659 21.533 3.289 -23.72 135 38 12.692 0.911
383 801.663 21.641 3.289 -23.722 135 40 12.921 0.99
384 803.668 21.624 3.289 -23.717 135 42 13.136 0.974
385 805.67 21.647 3.289 -23.72 135 44 13.328 0.941
386 807.677 21.547 3.288 -23.713 135 46 13.45 0.933
387 809.682 21.571 3.289 -23.719 135 48 13.671 0.975
388 811.687 21.581 3.289 -23.718 135 50 13.834 0.908
389 813.689 21.622 3.289 -23.717 135 52 13.891 0.971
390 815.696 21.638 3.288 -23.719 135 54 14.039 0.96
391 817.699 21.551 3.289 -23.711 135 56 14.155 0.97
392 819.703 21.652 3.288 -23.716 135 58 14.229 0.887
393 821.708 21.659 3.288 -23.717 135 60 14.32 0.958
394 823.712 21.617 3.288 -23.717 135 62 14.397 0.914
395 825.717 21.543 3.289 -23.718 135 64 14.434 1.015
396 827.723 21.63 3.288 -23.718 135 66 14.486 0.963
397 829.728 21.592 3.289 -23.718 135 68 14.564 0.956
398 831.729 21.615 3.289 -23.718 135 70 14.637 0.953
399 833.734 21.596 3.289 -23.714 135 72 14.728 0.943
400 835.739 21.534 3.288 -23.722 135 74 14.621 0.945
401 837.744 21.624 3.288 -23.724 135 76 14.725 0.936
402 839.748 21.605 3.288 -23.719 135 78 14.764 0.943
403 841.751 21.594 3.289 -23.717 135 80 14.746 0.953
404 843.759 21.561 3.289 -23.719 135 82 14.752 0.88
405 845.761 21.578 3.289 -23.714 135 84 14.891 0.962
406 847.766 21.586 3.289 -23.717 135 86 14.834 0.959
407 849.769 21.607 3.289 -23.711 135 88 14.859 0.948
408 851.772 21.609 3.288 -23.721 135 90 14.767 0.928
409 853.777 21.652 3.288 -23.718 135 92 14.745 0.955
410 855.781 21.571 3.289 -23.717 135 94 14.779 0.939
411 857.787 21.637 3.289 -23.716 135 96 14.652 0.972
412 859.791 21.541 3.288 -23.719 135 98 14.694 1
413 861.793 21.615 3.289 -23.712 135 100 14.668 0.987
414 863.797 21.537 3.289 -23.716 135 102 14.658 0.984
415 865.803 21.665 3.288 -23.72 135 104 14.551 0.976
416 867.806 21.634 3.289 -23.721 135 106 14.434 0.926
417 869.807 21.642 3.289 -23.716 135 108 14.344 0.985
418 871.813 21.613 3.288 -23.721 135 110 14.2 0.933
419 873.817 21.538 3.288 -23.718 135 112 14.192 0.961
420 875.821 21.63 3.288 -23.717 135 114 14.11 0.971
421 877.826 21.683 3.288 -23.722 135 116 13.935 0.965
422 879.827 21.614 3.288 -23.718 135 118 13.865 0.957
423 881.833 21.568 3.289 -23.717 135 120 13.708 0.963
424 883.835 21.617 3.288 -23.72 135 122 13.558 0.981
425 885.838 21.529 3.288 -23.717 135 124 13.376 0.954
426 887.845 21.545 3.289 -23.719 135 126 13.133 0.941
427 889.847 21.565 3.288 -23.717 135 128 12.925 0.91
428 891.849 21.596 3.289 -23.721 135 130 12.797 0.954
429 893.853 21.583 3.289 -23.719 135 132 12.585 0.923
430 895.856 21.64 3.289 -23.72 135 134 12.305 0.907
431 897.861 21.573 3.289 -23.725 135 136 12.117 0.902
432 899.863 21.571 3.288 -23.72 135 138 11.887 0.963
433 901.867 21.691 3.289 -23.723 135 140 11.605 0.917
434 903.872 21.628 3.289 -23.723 135 142 11.437 0.937
435 905.874 21.71 3.289 -23.722 135 144 11.204 0.948
436 907.875 21.593 3.289 -23.717 135 146 10.925 0.986
437 909.88 21.658 3.289 -23.718 135 148 10.629 0.969
438 911.883 21.641 3.289 -23.72 135 150 10.381 0.953
439 913.886 21.529 3.289 -23.721 135 152 9.993 0.947
440 915.89 21.629 3.289 -23.718 135 154 9.695 0.937
441 917.893 21.578 3.289 -23.721 135 156 9.395 0.945
442 919.897 21.709 3.289 -23.725 135 158 8.816 0.972
443 921.9 21.612 3.289 -23.716 135 160 8.111 0.942
444 923.903 21.64 3.289 -23.718 135 162 7.506 0.938
445 925.905 21.569 3.289 -23.719 135 164 7.011 0.95
446 927.908 21.593 3.288 -23.716 135 166 6.238 0.967
447 929.911 21.609 3.289 -23.715 135 168 5.574 0.976
448 931.915 21.563 3.289 -23.721 135 170 4.922 0.892
449 933.917 21.613 3.289 -23.724 135 172 3.868 0.984
450 935.92 21.623 3.289 -23.724 135 174 3.017 0.961
451 937.923 21.649 3.289 -23.717 135 176 2.06 0.947
452 939.926 21.607 3.289 -23.719 135 178 1.39 0.926
453 941.93 21.687 3.289 -23.727 135 180 1.383 0.933
454 943.933 21.706 3.289 -23.718 135 178 1.385 0.944
455 945.936 21.625 3.289 -23.718 135 176 1.954 0.953
456 947.937 21.58 3.289 -23.724 135 174 2.919 0.945
457 949.94 21.627 3.289 -23.724 135 172 3.85 0.943
458 951.944 21.663 3.289 -23.72 135 170 4.847 0.965
459 953.945 21.552 3.289 -23.72 135 168 5.475 0.927
460 955.948 21.607 3.288 -23.721 135 166 6.186 0.932
461 957.952 21.579 3.289 -23.723 135 164 6.937 0.956
462 959.955 21.652 3.289 -23.724 135 162 7.435 0.93
463 961.956 21.638 3.289 -23.721 135 160 8.086 0.951
464 963.959 21.662 3.288 -23.72 135 158 8.793 0.98
465 965.96 21.569 3.289 -23.718 135 156 9.328 0.953
466 967.964 21.567 3.289 -23.721 135 154 9.638 0.962
467 969.966 21.633 3.288 -23.719 135 152 9.986 0.948
468 971.97 21.563 3.289 -23.718 135 150 10.353 0.948
469 973.97 21.656 3.289 -23.718 135 148 10.564 0.937
470 975.973 21.661 3.289 -23.72 135 146 10.889 0.926
471 977.977 21.561 3.289 -23.718 135 144 11.165 0.93
472 979.978 21.632 3.289 -23.721 135 142 11.397 0.961
473 981.981 21.657 3.289 -23.721 135 140 11.67 0.946
474 983.983 21.518 3.289 -23.721 135 138 11.915 0.937
475 985.985 21.59 3.289 -23.717 135 136 12.187 0.974
476 987.986 21.547 3.289 -23.719 135 134 12.366 0.947
477 989.989 21.517 3.289 -23.717 135 132 12.592 0.944
478 991.99 21.658 3.288 -23.719 135 130 12.81 0.961
479 993.994 21.601 3.289 -23.717 135 128 12.93 0.921
480 995.996 21.563 3.289 -23.72 135 126 13.138 0.973
481 997.998 21.67 3.289 -23.72 135 124 13.356 0.925
482 1000 21.59 3.289 -23.724 135 122 13.526 0.983
483 1002.002 21.657 3.289 -23.714 135 120 13.667 0.981
484 1004.004 21.564 3.288 -23.723 135 118 13.843 0.974
485 1006.006 21.552 3.289 -23.722 135 116 14.006 0.948
486 1008.007 21.658 3.289 -23.716 135 114 14.094 0.939
487 1010.01 21.575 3.289 -23.716 135 112 14.13 0.903
488 1012.011 21.672 3.288 -23.723 135 110 14.346 0.962
489 1014.013 21.609 3.288 -23.716 135 108 14.351 0.875
490 1016.015 21.589 3.288 -23.722 135 106 14.463 0.95
491 1018.016 21.512 3.288 -23.718 135 104 14.544 0.968
492 1020.018 21.571 3.289 -23.724 135 102 14.585 0.914
493 1022.021 21.564 3.289 -23.717 135 100 14.681 0.934
494 1024.021 21.647 3.289 -23.714 135 98 14.714 0.96
495 1026.024 21.665 3.288 -23.717 135 96 14.772 0.959
496 1028.026 21.557 3.289 -23.716 135 94 14.801 0.946
497 1030.026 21.671 3.289 -23.725 135 92 14.811 0.945
498 1032.028 21.619 3.288 -23.716 135 90 14.869 0.924
499 1034.03 21.56 3.288 -23.718 135 88 14.805 0.941
500 1036.031 21.596 3.289 -23.717 135 86 14.797 0.967
501 1038.033 21.57 3.289 -23.722 135 84 14.895 0.96
502 1040.034 21.503 3.289 -23.722 135 82 14.904 0.933
503 1042.036 21.527 3.288 -23.717 135 80 14.873 0.863
504 1044.037 21.6 3.288 -23.715 135 78 14.868 0.894
505 1046.039 21.606 3.289 -23.723 135 76 14.776 0.941
506 1048.04 21.61 3.289 -23.719 135 74 14.801 0.964
507 1050.041 21.638 3.289 -23.719 135 72 14.677 0.886
508 1052.042 21.495 3.289 -23.716 135 70 14.645 0.976
509 1054.044 21.528 3.288 -23.716 135 68 14.56 0.976
510 1056.046 21.65 3.289 -23.718 135 66 14.55 0.964
511 1058.048 21.653 3.288 -23.72 135 64 14.419 0.892
512 1060.049 21.68 3.288 -23.722 135 62 14.438 0.972
513 1062.049 21.541 3.289 -23.722 135 60 14.326 0.99
514 1064.05 21.633 3.289 -23.72 135 58 14.194 0.959
515 1066.051 21.545 3.288 -23.715 135 56 14.194 0.904
516 1068.052 21.585 3.288 -23.714 135 54 14.05 0.87
517 1070.054 21.502 3.288 -23.714 135 52 13.856 0.975
518 1072.055 21.533 3.288 -23.715 135 50 13.838 0.948
519 1074.055 21.544 3.288 -23.717 135 48 13.679 0.944
520 1076.056 21.524 3.288 -23.722 135 46 13.522 0.945
521 1078.057 21.525 3.289 -23.725 135 44 13.436 0.971
522 1080.058 21.55 3.288 -23.717 135 42 13.151 0.972
523 1082.059 21.663 3.289 -23.715 135 40 12.953 0.929
524 1084.06 21.653 3.288 -23.721 135 38 12.697 0.952
525 1086.061 21.495 3.289 -23.717 135 36 12.473 0.89
526 1088.062 21.519 3.289 -23.71 135 34 12.309 0.948
527 1090.062 21.604 3.289 -23.72 135 32 12.041 0.937
528 1092.063 21.65 3.288 -23.719 135 30 11.785 0.971
529 1094.064 21.633 3.289 -23.717 135 28 11.541 0.983
530 1096.064 21.582 3.289 -23.717 135 26 11.284 0.955
531 1098.065 21.558 3.289 -23.716 135 24 11.003 0.965
532 1100.066 21.617 3.289 -23.717 135 22 10.681 0.948
533 1102.066 21.563 3.289 -23.717 135 20 10.3 0.958
534 1104.067 21.602 3.289 -23.722 135 18 9.818 0.976
535 1106.068 21.584 3.289 -23.724 135 16 9.26 0.979
536 1108.068 21.615 3.289 -23.724 135 14 8.861 0.958
537 1110.069 21.58 3.289 -23.721 135 12 8.203 0.982
538 1112.069 21.62 3.289 -23.715 135 10 7.655 0.94
539 1114.07 21.669 3.289 -23.717 135 8 6.876 0.951
540 1116.07 21.722 3.289 -23.719 135 6 5.768 0.962
541 1118.07 21.58 3.289 -23.719 135 4 4.464 0.952
542 1120.071 21.63 3.289 -23.719 135 2 2.833 0.944
543 1122.071 21.577 3.289 -23.722 135 0 1.859 0.955
544 1133.862 21.663 3.288 -23.717 150 0 1.96 0.951
545 1135.867 21.535 3.289 -23.723 150 2 2.643 0.942
546 1137.874 21.554 3.289 -23.724 150 4 3.937 0.953
547 1139.88 21.564 3.289 -23.716 150 6 5.297 0.932
548 1141.883 21.664 3.288 -23.716 150 8 6.35 0.953
549 1143.889 21.537 3.289 -23.721 150 10 7.167 0.961
550 1145.893 21.596 3.289 -23.721 150 12 7.741 0.955
551 1147.901 21.6 3.289 -23.727 150 14 8.536 0.929
552 1149.905 21.657 3.289 -23.727 150 16 8.99 0.945
553 1151.908 21.56 3.289 -23.717 150 18 9.565 0.98
554 1153.912 21.656 3.289 -23.721 150 20 10.037 0.951
555 1155.919 21.604 3.289 -23.714 150 22 10.511 0.977
556 1157.924 21.696 3.289 -23.717 150 24 10.876 0.955
557 1159.931 21.545 3.289 -23.715 150 26 11.114 0.934
558 1161.935 21.563 3.289 -23.72 150 28 11.358 0.967
559 1163.943 21.578 3.288 -23.72 150 30 11.718 0.973
560 1165.946 21.595 3.288 -23.718 150 32 11.937 0.947
561 1167.951 21.575 3.289 -23.714 150 34 12.192 0.963
562 1169.953 21.543 3.288 -23.719 150 36 12.388 0.986
563 1171.957 21.56 3.289 -23.719 150 38 12.673 0.944
564 1173.962 21.607 3.288 -23.721 150 40 12.896 0.975
565 1175.968 21.562 3.289 -23.719 150 42 13.094 0.982
566 1177.971 21.647 3.288 -23.723 150 44 13.347 0.947
567 1179.98 21.715 3.289 -23.721 150 46 13.393 0.972
568 1181.981 21.667 3.289 -23.719 150 48 13.617 0.892
569 1183.987 21.604 3.289 -23.721 150 50 13.719 0.954
570 1185.994 21.625 3.288 -23.719 150 52 13.866 0.87
571 1187.997 21.65 3.289 -23.718 150 54 14.014 0.925
572 1190.001 21.583 3.289 -23.717 150 56 14.074 0.945
573 1192.007 21.593 3.289 -23.718 150 58 14.223 0.986
574 1194.012 21.512 3.289 -23.716 150 60 14.247 0.994
575 1196.012 21.605 3.289 -23.721 150 62 14.359 0.97
576 1198.018 21.674 3.289 -23.721 150 64 14.438 0.965
577 1200.023 21.526 3.289 -23.719 150 66 14.386 0.95
578 1202.028 21.575 3.289 -23.715 150 68 14.538 0.963
579 1204.033 21.666 3.289 -23.723 150 70 14.623 1.001
580 1206.038 21.558 3.288 -23.719 150 72 14.698 0.925
581 1208.039 21.539 3.289 -23.719 150 74 14.718 0.866
582 1210.047 21.674 3.289 -23.719 150 76 14.676 0.992
583 1212.05 21.68 3.289 -23.716 150 78 14.794 0.875
584 1214.052 21.587 3.289 -23.722 150 80 14.816 1.007
585 1216.058 21.537 3.289 -23.721 150 82 14.849 0.981
586 1218.063 21.59 3.288 -23.718 150 84 14.916 0.953
587 1220.067 21.576 3.289 -23.721 150 86 14.888 0.931
588 1222.071 21.64 3.288 -23.721 150 88 14.871 0.942
589 1224.076 21.637 3.289 -23.718 150 90 14.761 0.968
590 1226.079 21.623 3.289 -23.718 150 92 14.853 0.962
591 1228.081 21.611 3.289 -23.72 150 94 14.834 0.892
592 1230.085 21.6 3.289 -23.725 150 96 14.779 0.966
593 1232.092 21.618 3.289 -23.719 150 98 14.704 0.986
594 1234.093 21.637 3.289 -23.719 150 100 14.63 0.942
595 1236.098 21.577 3.289 -23.722 150 102 14.652 0.988
596 1238.102 21.608 3.289 -23.72 150 104 14.556 0.926
597 1240.106 21.524 3.289 -23.719 150 106 14.509 0.893
598 1242.109 21.549 3.288 -23.718 150 108 14.42 0.949
599 1244.114 21.558 3.289 -23.716 150 110 14.295 0.993
600 1246.118 21.606 3.288 -23.72 150 112 14.223 0.953
601 1248.119 21.514 3.289 -23.718 150 114 14.121 0.906
602 1250.125 21.686 3.289 -23.715 150 116 14.035 0.969
603 1252.127 21.6 3.288 -23.722 150 118 13.872 0.971
604 1254.133 21.69 3.288 -23.722 150 120 13.75 0.996
605 1256.135 21.604 3.289 -23.721 150 122 13.579 0.949
606 1258.138 21.674 3.289 -23.717 150 124 13.43 0.988
607 1260.143 21.639 3.288 -23.718 150 126 13.214 0.966
608 1262.148 21.598 3.288 -23.721 150 128 13.012 0.972
609 1264.149 21.614 3.288 -23.724 150 130 12.839 0.959
610 1266.152 21.631 3.289 -23.718 150 132 12.574 0.942
611 1268.157 21.596 3.289 -23.721 150 134 12.383 0.951
612 1270.162 21.597 3.289 -23.72 150 136 12.214 0.957
613 1272.165 21.611 3.289 -23.717 150 138 11.95 0.98
614 1274.166 21.583 3.288 -23.722 150 140 11.677 0.961
615 1276.172 21.587 3.289 -23.718 150 142 11.436 0.947
616 1278.173 21.52 3.288 -23.719 150 144 11.212 0.915
617 1280.179 21.638 3.289 -23.72 150 146 10.885 0.968
618 1282.181 21.582 3.289 -23.718 150 148 10.586 0.976
619 1284.185 21.545 3.289 -23.718 150 150 10.328 0.925
620 1286.188 21.596 3.289 -23.715 150 152 10.093 0.931
621 1288.189 21.665 3.289 -23.723 150 154 9.77 0.928
622 1290.192 21.596 3.289 -23.718 150 156 9.435 0.944
623 1292.196 21.592 3.289 -23.724 150 158 8.814 0.948
624 1294.198 21.553 3.289 -23.722 150 160 8.162 0.952
625 1296.203 21.581 3.289 -23.717 150 162 7.554 0.969
626 1298.207 21.63 3.289 -23.715 150 164 7.083 0.948
627 1300.209 21.539 3.288 -23.718 150 166 6.329 0.946
628 1302.213 21.669 3.289 -23.718 150 168 5.596 0.979
629 1304.215 21.644 3.289 -23.721 150 170 4.832 0.943
630 1306.217 21.549 3.289 -23.721 150 172 4.046 0.934
631 1308.223 21.513 3.289 -23.717 150 174 3.271 0.961
632 1310.224 21.592 3.289 -23.722 150 176 2.206 0.932
633 1312.227 21.588 3.289 -23.719 150 178 1.498 0.948
634 1314.23 21.679 3.289 -23.722 150 180 1.513 0.962
635 1316.233 21.689 3.289 -23.717 150 178 1.509 0.953
636 1318.234 21.603 3.289 -23.717 150 176 2.215 0.936
637 1320.237 21.641 3.289 -23.721 150 174 3.153 0.948
638 1322.24 21.542 3.289 -23.72 150 172 4.025 0.932
639 1324.242 21.559 3.289 -23.723 150 170 4.932 0.913
640 1326.245 21.596 3.289 -23.72 150 168 5.533 0.965
641 1328.247 21.599 3.289 -23.716 150 166 6.281 0.952
642 1330.249 21.558 3.289 -23.715 150 164 7.018 0.937
643 1332.253 21.486 3.289 -23.718 150 162 7.475 0.934
644 1334.255 21.601 3.289 -23.718 150 160 8.077 0.966
645 1336.259 21.631 3.289 -23.716 150 158 8.795 0.976
646 1338.26 21.583 3.289 -23.722 150 156 9.412 0.943
647 1340.262 21.668 3.289 -23.721 150 154 9.714 0.944
648 1342.267 21.693 3.289 -23.721 150 152 10.064 0.934
649 1344.268 21.584 3.289 -23.718 150 150 10.353 0.949
650 1346.27 21.494 3.289 -23.721 150 148 10.573 0.957
651 1348.273 21.615 3.289 -23.72 150 146 10.89 0.963
652 1350.274 21.617 3.289 -23.722 150 144 11.142 0.969
653 1352.277 21.573 3.288 -23.719 150 142 11.439 0.944
654 1354.279 21.567 3.289 -23.717 150 140 11.659 0.922
655 1356.282 21.568 3.289 -23.719 150 138 11.925 0.971
656 1358.284 21.64 3.289 -23.721 150 136 12.161 0.951
657 1360.285 21.615 3.288 -23.718 150 134 12.402 0.952
658 1362.29 21.675 3.289 -23.719 150 132 12.609 0.966
659 1364.29 21.669 3.288 -23.723 150 130 12.764 0.971
660 1366.292 21.642 3.288 -23.716 150 128 12.922 0.873
661 1368.294 21.64 3.288 -23.723 150 126 13.223 0.941
662 1370.297 21.644 3.289 -23.724 150 124 13.351 0.982
663 1372.298 21.566 3.289 -23.719 150 122 13.56 0.989
664 1374.301 21.599 3.289 -23.721 150 120 13.684 0.949
665 1376.303 21.584 3.288 -23.716 150 118 13.848 0.963
666 1378.305 21.627 3.288 -23.717 150 116 14.001 0.947
667 1380.306 21.621 3.288 -23.722 150 114 14.157 0.977
668 1382.309 21.613 3.289 -23.723 150 112 14.226 0.885
669 1384.31 21.668 3.288 -23.718 150 110 14.34 0.977
670 1386.313 21.664 3.288 -23.717 150 108 14.413 0.908
671 1388.314 21.537 3.289 -23.718 150 106 14.457 0.963
672 1390.316 21.495 3.289 -23.715 150 104 14.574 0.993
673 1392.317 21.55 3.289 -23.716 150 102 14.597 0.935
674 1394.319 21.529 3.288 -23.715 150 100 14.564 0.965
675 1396.321 21.619 3.289 -23.721 150 98 14.742 0.965
676 1398.322 21.673 3.289 -23.718 150 96 14.792 1.007
677 1400.324 21.667 3.289 -23.722 150 94 14.758 0.963
678 1402.326 21.55 3.289 -23.719 150 92 14.794 0.948
679 1404.327 21.49 3.289 -23.719 150 90 14.814 0.963
680 1406.329 21.608 3.289 -23.717 150 88 14.902 0.915
681 1408.329 21.625 3.289 -23.72 150 86 14.837 0.948
682 1410.332 21.627 3.289 -23.723 150 84 14.85 0.976
683 1412.333 21.566 3.288 -23.717 150 82 14.844 0.942
684 1414.335 21.63 3.289 -23.721 150 80 14.798 0.989
685 1416.337 21.582 3.288 -23.721 150 78 14.824 0.95
686 1418.338 21.602 3.289 -23.723 150 76 14.817 0.882
687 1420.339 21.626 3.289 -23.719 150 74 14.731 0.944
688 1422.339 21.52 3.289 -23.718 150 72 14.717 0.888
689 1424.341 21.655 3.289 -23.718 150 70 14.617 0.974
690 1426.343 21.622 3.289 -23.713 150 68 14.499 0.936
691 1428.343 21.573 3.289 -23.718 150 66 14.507 0.997
692 1430.345 21.593 3.288 -23.714 150 64 14.493 0.95
693 1432.346 21.554 3.289 -23.725 150 62 14.376 0.966
694 1434.347 21.589 3.289 -23.717 150 60 14.28 1.001
695 1436.348 21.616 3.289 -23.716 150 58 14.217 0.988
696 1438.349 21.592 3.289 -23.728 150 56 14.183 0.979
697 1440.351 21.629 3.289 -23.721 150 54 14.086 0.927
698 1442.352 21.651 3.288 -23.717 150 52 13.939 0.96
699 1444.352 21.61 3.288 -23.722 150 50 13.696 0.972
700 1446.353 21.596 3.289 -23.715 150 48 13.607 0.993
701 1448.354 21.654 3.289 -23.721 150 46 13.489 0.946
702 1450.355 21.607 3.289 -23.718 150 44 13.277 0.997
703 1452.356 21.587 3.289 -23.719 150 42 13.072 1.004
704 1454.357 21.55 3.288 -23.724 150 40 12.887 0.997
705 1456.358 21.684 3.288 -23.719 150 38 12.709 0.957
706 1458.359 21.571 3.288 -23.72 150 36 12.398 0.935
707 1460.359 21.617 3.288 -23.719 150 34 12.23 0.926
708 1462.36 21.633 3.289 -23.718 150 32 11.991 1.005
709 1464.361 21.562 3.288 -23.723 150 30 11.742 0.977
710 1466.361 21.543 3.289 -23.72 150 28 11.374 0.952
711 1468.364 21.686 3.289 -23.719 150 26 11.196 0.946
712 1470.365 21.591 3.289 -23.724 150 24 10.905 0.975
713 1472.365 21.621 3.289 -23.717 150 22 10.49 0.95
714 1474.365 21.622 3.289 -23.722 150 20 10.089 0.98
715 1476.366 21.608 3.289 -23.725 150 18 9.611 0.979
716 1478.366 21.663 3.288 -23.722 150 16 8.948 0.978
717 1480.366 21.566 3.289 -23.719 150 14 8.491 0.984
718 1482.366 21.659 3.289 -23.719 150 12 7.742 0.973
719 1484.367 21.671 3.289 -23.718 150 10 7.105 0.948
720 1486.367 21.597 3.289 -23.723 150 8 6.289 0.963
721 1488.367 21.515 3.289 -23.72 150 6 5.248 0.983
722 1490.368 21.589 3.289 -23.723 150 4 3.983 0.975
723 1492.368 21.637 3.289 -23.721 150 2 2.757 0.988
724 1494.368 21.58 3.289 -23.721 150 0 1.984 0.98
725 1506.161 21.634 3.289 -23.719 180 0 1.599 0.963
726 1508.17 21.667 3.289 -23.72 180 2 2.148 0.981
727 1510.17 21.566 3.289 -23.718 180 4 3.273 0.99
728 1512.179 21.543 3.289 -23.721 180 6 4.46 1.006
729 1514.185 21.656 3.289 -23.725 180 8 5.397 1.027
730 1516.191 21.629 3.289 -23.713 180 10 6.199 0.975
731 1518.193 21.677 3.289 -23.722 180 12 6.855 0.994
732 1520.198 21.571 3.288 -23.725 180 14 7.647 0.984
733 1522.205 21.626 3.289 -23.717 180 16 8.094 1
734 1524.21 21.578 3.289 -23.721 180 18 8.746 0.989
735 1526.213 21.663 3.289 -23.719 180 20 9.322 1.017
736 1528.217 21.608 3.289 -23.717 180 22 9.909 1.021
737 1530.224 21.655 3.289 -23.717 180 24 10.323 1.018
738 1532.228 21.609 3.289 -23.72 180 26 10.695 0.947
739 1534.234 21.679 3.288 -23.719 180 28 10.912 0.953
740 1536.237 21.633 3.289 -23.718 180 30 11.29 0.986
741 1538.242 21.601 3.289 -23.72 180 32 11.615 1.021
742 1540.248 21.559 3.289 -23.725 180 34 11.873 0.991
743 1542.252 21.546 3.289 -23.721 180 36 12.046 1.01
744 1544.257 21.579 3.289 -23.724 180 38 12.328 1.044
745 1546.263 21.554 3.289 -23.718 180 40 12.569 0.945
746 1548.266 21.611 3.289 -23.718 180 42 12.865 1.029
747 1550.271 21.587 3.288 -23.717 180 44 13.062 0.948
748 1552.276 21.455 3.289 -23.718 180 46 13.291 1.012
749 1554.282 21.663 3.289 -23.718 180 48 13.263 0.999
750 1556.285 21.546 3.288 -23.717 180 50 13.56 1.028
751 1558.288 21.593 3.289 -23.727 180 52 13.636 1.004
752 1560.297 21.665 3.289 -23.718 180 54 13.914 0.937
753 1562.298 21.52 3.288 -23.72 180 56 14.063 0.997
754 1564.302 21.645 3.289 -23.721 180 58 14.16 0.973
755 1566.307 21.604 3.288 -23.715 180 60 14.197 1.048
756 1568.313 21.626 3.289 -23.723 180 62 14.308 1.022
757 1570.319 21.596 3.289 -23.72 180 64 14.449 1.049
758 1572.32 21.697 3.289 -23.721 180 66 14.554 1.031
759 1574.325 21.619 3.289 -23.716 180 68 14.602 1.031
760 1576.33 21.497 3.289 -23.717 180 70 14.642 0.956
761 1578.334 21.585 3.288 -23.72 180 72 14.724 0.996
762 1580.34 21.638 3.289 -23.717 180 74 14.801 1.073
763 1582.343 21.652 3.288 -23.715 180 76 14.733 1.032
764 1584.346 21.592 3.288 -23.714 180 78 14.872 1.028
765 1586.352 21.646 3.288 -23.724 180 80 14.803 0.939
766 1588.356 21.592 3.289 -23.722 180 82 14.887 1.028
767 1590.361 21.627 3.289 -23.721 180 84 14.904 1.05
768 1592.364 21.722 3.289 -23.72 180 86 14.852 1.04
769 1594.369 21.678 3.289 -23.718 180 88 14.887 1.02
770 1596.372 21.47 3.289 -23.716 180 90 14.869 1.034
771 1598.374 21.623 3.289 -23.717 180 92 14.894 0.942
772 1600.378 21.554 3.288 -23.718 180 94 14.912 1.016
773 1602.384 21.574 3.288 -23.72 180 96 14.842 0.987
774 1604.388 21.599 3.289 -23.714 180 98 14.825 1.003
775 1606.39 21.576 3.289 -23.727 180 100 14.729 1.014
776 1608.397 21.634 3.289 -23.72 180 102 14.686 0.971
777 1610.398 21.606 3.288 -23.721 180 104 14.692 1.034
778 1612.404 21.593 3.289 -23.725 180 106 14.598 1.008
779 1614.408 21.583 3.289 -23.721 180 108 14.557 0.999
780 1616.412 21.691 3.289 -23.721 180 110 14.517 1.035
781 1618.413 21.577 3.289 -23.72 180 112 14.337 1.02
782 1620.418 21.526 3.289 -23.717 180 114 14.173 1.005
783 1622.421 21.646 3.289 -23.718 180 116 14.094 1
784 1624.426 21.623 3.288 -23.718 180 118 14.021 0.955
785 1626.429 21.57 3.289 -23.72 180 120 13.857 0.971
786 1628.434 21.666 3.289 -23.718 180 122 13.759 1.042
787 1630.436 21.566 3.289 -23.722 180 124 13.566 0.991
788 1632.441 21.633 3.289 -23.717 180 126 13.343 1.013
789 1634.447 21.611 3.289 -23.718 180 128 13.123 0.976
790 1636.448 21.692 3.289 -23.719 180 130 12.965 1.002
791 1638.45 21.657 3.289 -23.72 180 132 12.736 1.013
792 1640.454 21.604 3.289 -23.719 180 134 12.6 0.984
793 1642.457 21.612 3.288 -23.724 180 136 12.244 0.994
794 1644.461 21.721 3.289 -23.722 180 138 11.958 1
795 1646.464 21.545 3.289 -23.717 180 140 11.853 0.996
796 1648.469 21.555 3.289 -23.719 180 142 11.572 0.999
797 1650.471 21.648 3.289 -23.716 180 144 11.276 0.978
798 1652.474 21.582 3.288 -23.722 180 146 11.059 0.934
799 1654.477 21.669 3.289 -23.72 180 148 10.728 0.994
800 1656.48 21.592 3.289 -23.719 180 150 10.529 0.945
801 1658.484 21.643 3.289 -23.724 180 152 10.204 1.001
802 1660.488 21.666 3.289 -23.719 180 154 9.867 0.979
803 1662.491 21.537 3.289 -23.717 180 156 9.59 0.953
804 1664.494 21.642 3.289 -23.719 180 158 9.059 0.971
805 1666.496 21.683 3.289 -23.72 180 160 8.319 1.007
806 1668.499 21.617 3.289 -23.721 180 162 7.754 1
807 1670.502 21.642 3.289 -23.722 180 164 7.277 0.991
808 1672.505 21.655 3.289 -23.718 180 166 6.537 0.994
809 1674.507 21.687 3.289 -23.722 180 168 5.922 1
810 1676.51 21.652 3.289 -23.719 180 170 5.195 0.995
811 1678.513 21.684 3.289 -23.72 180 172 4.542 1.009
812 1680.517 21.645 3.289 -23.718 180 174 3.629 1.013
813 1682.52 21.642 3.289 -23.719 180 176 2.73 1.025
814 1684.523 21.514 3.289 -23.722 180 178 1.758 0.997
815 1686.525 21.635 3.289 -23.723 180 180 1.783 1.016
816 1688.529 21.657 3.289 -23.721 180 178 1.832 0.989
817 1690.532 21.523 3.289 -23.714 180 176 2.583 1.007
818 1692.535 21.663 3.289 -23.719 180 174 3.59 1.029
819 1694.537 21.695 3.289 -23.719 180 172 4.412 1.026
820 1696.539 21.582 3.289 -23.723 180 170 5.275 1.013
821 1698.541 21.652 3.289 -23.719 180 168 5.813 1.001
822 1700.543 21.626 3.289 -23.722 180 166 6.514 1.014
823 1702.547 21.608 3.289 -23.721 180 164 7.161 1.009
824 1704.549 21.61 3.289 -23.721 180 162 7.659 1.021
825 1706.552 21.59 3.289 -23.722 180 160 8.218 0.992
826 1708.554 21.537 3.289 -23.721 180 158 9.044 0.971
827 1710.558 21.644 3.289 -23.721 180 156 9.507 0.991
828 1712.559 21.63 3.289 -23.723 180 154 9.848 1.008
829 1714.562 21.627 3.289 -23.722 180 152 10.147 0.997
830 1716.564 21.686 3.288 -23.719 180 150 10.48 0.994
831 1718.567 21.61 3.289 -23.716 180 148 10.728 1.02
832 1720.568 21.579 3.289 -23.722 180 146 11.048 1.018
833 1722.571 21.528 3.288 -23.721 180 144 11.328 1.011
834 1724.573 21.608 3.289 -23.722 180 142 11.572 1.007
835 1726.576 21.567 3.289 -23.718 180 140 11.799 1.006
836 1728.58 21.58 3.289 -23.724 180 138 12.004 1.021
837 1730.581 21.701 3.289 -23.719 180 136 12.343 1.035
838 1732.581 21.717 3.289 -23.718 180 134 12.562 0.995
839 1734.585 21.626 3.289 -23.718 180 132 12.749 0.965
840 1736.587 21.703 3.289 -23.719 180 130 12.948 1.028
841 1738.589 21.675 3.289 -23.721 180 128 13.186 0.987
842 1740.59 21.644 3.289 -23.723 180 126 13.333 1.03
843 1742.593 21.631 3.289 -23.724 180 124 13.534 1.075
844 1744.594 21.7 3.289 -23.722 180 122 13.739 1.02
845 1746.597 21.648 3.289 -23.721 180 120 13.913 1.021
846 1748.598 21.49 3.289 -23.722 180 118 14.03 0.993
847 1750.603 21.576 3.288 -23.719 180 116 14.144 1.017
848 1752.604 21.543 3.288 -23.72 180 114 14.235 1.009
849 1754.604 21.692 3.289 -23.716 180 112 14.264 1.038
850 1756.605 21.583 3.289 -23.721 180 110 14.471 1.012
851 1758.607 21.619 3.289 -23.719 180 108 14.492 1.041
852 1760.609 21.724 3.289 -23.722 180 106 14.615 0.954
853 1762.61 21.634 3.289 -23.719 180 104 14.626 1.033
854 1764.612 21.611 3.288 -23.717 180 102 14.705 0.996
855 1766.615 21.694 3.288 -23.72 180 100 14.775 1.009
856 1768.616 21.596 3.289 -23.717 180 98 14.814 1.063
857 1770.617 21.617 3.288 -23.719 180 96 14.836 1.041
858 1772.619 21.663 3.288 -23.722 180 94 14.798 0.961
859 1774.62 21.621 3.288 -23.72 180 92 14.806 1.046
860 1776.622 21.659 3.289 -23.72 180 90 14.899 0.963
861 1778.624 21.597 3.289 -23.722 180 88 14.929 0.948
862 1780.627 21.646 3.289 -23.721 180 86 14.937 0.954
863 1782.628 21.638 3.288 -23.722 180 84 14.945 0.956
864 1784.628 21.572 3.289 -23.722 180 82 14.863 1.042
865 1786.63 21.621 3.288 -23.719 180 80 14.863 1.002
866 1788.63 21.604 3.289 -23.717 180 78 14.869 1.012
867 1790.633 21.571 3.289 -23.722 180 76 14.835 1.038
868 1792.633 21.569 3.288 -23.717 180 74 14.712 1.037
869 1794.635 21.692 3.289 -23.718 180 72 14.758 0.979
870 1796.636 21.621 3.289 -23.721 180 70 14.729 1.063
871 1798.637 21.578 3.288 -23.721 180 68 14.666 1.022
872 1800.639 21.543 3.288 -23.718 180 66 14.579 1.021
873 1802.64 21.542 3.289 -23.717 180 64 14.425 1.059
874 1804.64 21.534 3.289 -23.714 180 62 14.36 1.036
875 1806.642 21.612 3.289 -23.717 180 60 14.282 1.038
876 1808.643 21.641 3.289 -23.722 180 58 14.166 1.05
877 1810.644 21.569 3.289 -23.719 180 56 14.098 1.044
878 1812.645 21.596 3.289 -23.717 180 54 13.912 1.038
879 1814.646 21.67 3.289 -23.718 180 52 13.717 0.991
880 1816.647 21.633 3.288 -23.717 180 50 13.631 1.056
881 1818.648 21.689 3.288 -23.718 180 48 13.383 1.021
882 1820.649 21.566 3.288 -23.719 180 46 13.295 0.98
883 1822.65 21.644 3.289 -23.721 180 44 13.131 1.002
884 1824.651 21.592 3.288 -23.716 180 42 12.913 1.012
885 1826.654 21.705 3.288 -23.713 180 40 12.723 1.07
886 1828.654 21.556 3.289 -23.723 180 38 12.448 1.012
887 1830.654 21.714 3.289 -23.717 180 36 12.152 1.051
888 1832.654 21.56 3.289 -23.719 180 34 11.912 1.092
889 1834.655 21.601 3.289 -23.722 180 32 11.558 1.01
890 1836.655 21.572 3.288 -23.727 180 30 11.349 1.003
891 1838.656 21.685 3.289 -23.715 180 28 10.959 1.022
892 1840.657 21.714 3.289 -23.717 180 26 10.666 0.967
893 1842.657 21.628 3.289 -23.718 180 24 10.401 1.002
894 1844.658 21.721 3.289 -23.721 180 22 9.867 1.043
895 1846.658 21.667 3.289 -23.72 180 20 9.397 1.024
896 1848.659 21.617 3.289 -23.722 180 18 8.817 1.014
897 1850.659 21.663 3.289 -23.726 180 16 8.135 0.989
898 1852.66 21.569 3.289 -23.718 180 14 7.565 1.016
899 1854.66 21.575 3.289 -23.722 180 12 6.821 1.008
900 1856.661 21.642 3.289 -23.724 180 10 6.109 1.018
901 1858.661 21.627 3.289 -23.722 180 8 5.345 1.044
902 1860.661 21.661 3.289 -23.723 180 6 4.451 1.033
903 1862.662 21.693 3.289 -23.722 180 4 3.297 0.969
904 1864.662 21.581 3.289 -23.721 180 2 2.176 1.017
905 1866.662 21.65 3.289 -23.723 180 0 1.539 0.988
