Date      - 2021-10-11T17:54:32
Vref      = 3.319 V
Us(+5V)   = 4.917 V
Temp_SiPM = 23.027 C
Temp_CPU  = 35.778 C
U_LED_on  = 2.85 V, (402nm)
+U_SiPM   = 3.289 V
-U_SiPM   = -23.718 V
U_SiPM    = 27.008 V
I_SiPM    = 0.723 uA
 No t[s] T[C] U+_SiPM[V] U-_SiPM[V] Vert.angl[grad]. Hor.angl[grad] I_SiPM[uA] I0_SiPM[uA] 
1 13.659 23.09 3.288 -23.72 90 0 0.719 0.726
2 15.663 22.966 3.288 -23.717 90 2 0.893 0.74
3 17.666 23.072 3.289 -23.712 90 4 1.199 0.695
4 19.672 23.062 3.289 -23.714 90 6 1.501 0.727
5 21.676 22.979 3.289 -23.716 90 8 1.854 0.728
6 23.683 23.012 3.288 -23.717 90 10 2.153 0.668
7 25.689 22.898 3.289 -23.718 90 12 2.472 0.699
8 27.692 22.961 3.289 -23.718 90 14 2.834 0.715
9 29.698 22.954 3.289 -23.72 90 16 3.12 0.69
10 31.703 22.986 3.289 -23.714 90 18 3.48 0.7
11 33.71 23.014 3.289 -23.721 90 20 3.801 0.72
12 35.714 22.885 3.289 -23.722 90 22 4.162 0.735
13 37.722 22.987 3.289 -23.721 90 24 4.539 0.715
14 39.727 22.997 3.289 -23.712 90 26 4.787 0.708
15 41.729 23.008 3.289 -23.715 90 28 5.024 0.734
16 43.734 23.014 3.289 -23.719 90 30 5.432 0.761
17 45.741 22.892 3.289 -23.715 90 32 5.795 0.724
18 47.745 22.989 3.289 -23.72 90 34 6.042 0.745
19 49.751 23.026 3.289 -23.717 90 36 6.239 0.735
20 51.754 22.918 3.289 -23.715 90 38 6.488 0.727
21 53.759 22.886 3.289 -23.72 90 40 6.728 0.722
22 55.766 22.962 3.288 -23.716 90 42 7.067 0.719
23 57.769 22.939 3.289 -23.716 90 44 7.344 0.719
24 59.774 22.974 3.289 -23.715 90 46 7.53 0.692
25 61.781 22.947 3.289 -23.719 90 48 7.666 0.777
26 63.784 22.924 3.289 -23.716 90 50 7.894 0.711
27 65.788 22.907 3.289 -23.717 90 52 8.119 0.695
28 67.793 22.995 3.289 -23.715 90 54 8.278 0.64
29 69.8 23.037 3.289 -23.716 90 56 8.466 0.77
30 71.802 23.024 3.289 -23.722 90 58 8.623 0.725
31 73.807 22.93 3.289 -23.718 90 60 8.781 0.729
32 75.811 23.008 3.289 -23.718 90 62 8.789 0.692
33 77.815 22.941 3.289 -23.714 90 64 9.014 0.603
34 79.82 22.956 3.289 -23.716 90 66 9.15 0.72
35 81.825 22.952 3.289 -23.717 90 68 9.16 0.69
36 83.831 22.984 3.289 -23.718 90 70 9.388 0.743
37 85.832 22.924 3.289 -23.716 90 72 9.369 0.687
38 87.837 22.932 3.289 -23.721 90 74 9.542 0.714
39 89.842 22.969 3.289 -23.712 90 76 9.518 0.628
40 91.847 22.886 3.289 -23.717 90 78 9.667 0.737
41 93.851 23.003 3.288 -23.721 90 80 9.727 0.747
42 95.855 22.944 3.288 -23.72 90 82 9.748 0.662
43 97.859 22.932 3.289 -23.72 90 84 9.817 0.708
44 99.865 22.939 3.288 -23.719 90 86 9.785 0.725
45 101.867 23.02 3.289 -23.717 90 88 9.838 0.712
46 103.872 23.023 3.288 -23.718 90 90 9.781 0.718
47 105.875 23.039 3.289 -23.716 90 92 9.724 0.63
48 107.882 22.985 3.288 -23.718 90 94 9.778 0.73
49 109.883 22.936 3.288 -23.717 90 96 9.691 0.707
50 111.887 22.932 3.289 -23.721 90 98 9.736 0.746
51 113.893 22.956 3.288 -23.716 90 100 9.667 0.641
52 115.897 22.894 3.289 -23.716 90 102 9.514 0.733
53 117.899 23.021 3.288 -23.719 90 104 9.558 0.731
54 119.903 23.026 3.289 -23.714 90 106 9.485 0.766
55 121.909 22.977 3.288 -23.718 90 108 9.367 0.716
56 123.914 23.04 3.289 -23.714 90 110 9.233 0.703
57 125.915 22.923 3.289 -23.717 90 112 9.169 0.693
58 127.921 23.081 3.289 -23.72 90 114 9.042 0.75
59 129.924 23.056 3.288 -23.716 90 116 8.829 0.744
60 131.928 23.017 3.289 -23.715 90 118 8.74 0.745
61 133.93 22.983 3.288 -23.715 90 120 8.62 0.728
62 135.936 23.002 3.289 -23.713 90 122 8.395 0.663
63 137.938 22.9 3.289 -23.714 90 124 8.214 0.67
64 139.944 22.985 3.289 -23.719 90 126 8.019 0.708
65 141.946 22.918 3.289 -23.717 90 128 7.826 0.708
66 143.948 23 3.289 -23.716 90 130 7.633 0.696
67 145.954 22.949 3.289 -23.712 90 132 7.354 0.701
68 147.955 22.982 3.289 -23.717 90 134 7.091 0.695
69 149.959 23.009 3.289 -23.719 90 136 6.95 0.728
70 151.963 23.005 3.289 -23.72 90 138 6.661 0.718
71 153.968 22.997 3.289 -23.716 90 140 6.359 0.718
72 155.969 22.865 3.289 -23.715 90 142 6.095 0.745
73 157.972 22.882 3.289 -23.72 90 144 5.861 0.679
74 159.979 23.035 3.289 -23.717 90 146 5.611 0.704
75 161.982 22.932 3.289 -23.716 90 148 5.254 0.731
76 163.983 23.045 3.289 -23.725 90 150 5.036 0.695
77 165.988 22.99 3.289 -23.724 90 152 4.668 0.738
78 167.991 23.063 3.289 -23.717 90 154 4.38 0.728
79 169.994 22.978 3.289 -23.716 90 156 4.055 0.715
80 171.997 22.979 3.289 -23.72 90 158 3.688 0.717
81 174.001 22.924 3.289 -23.717 90 160 3.359 0.702
82 176.002 22.949 3.289 -23.72 90 162 3.061 0.744
83 178.005 23.029 3.289 -23.714 90 164 2.752 0.711
84 180.011 22.928 3.289 -23.714 90 166 2.354 0.737
85 182.013 23.084 3.289 -23.721 90 168 2.02 0.736
86 184.017 23.012 3.289 -23.721 90 170 1.783 0.705
87 186.019 22.948 3.289 -23.722 90 172 1.401 0.703
88 188.02 22.95 3.288 -23.719 90 174 1.14 0.699
89 190.025 23.012 3.289 -23.721 90 176 0.949 0.737
90 192.028 23.024 3.289 -23.725 90 178 0.756 0.708
91 194.032 22.997 3.289 -23.722 90 180 0.75 0.69
92 196.033 23.133 3.289 -23.72 90 178 0.752 0.706
93 198.036 22.984 3.289 -23.716 90 176 0.865 0.678
94 200.039 22.982 3.289 -23.724 90 174 1.147 0.73
95 202.042 22.972 3.289 -23.719 90 172 1.41 0.733
96 204.046 23.008 3.288 -23.714 90 170 1.697 0.732
97 206.046 22.984 3.289 -23.718 90 168 1.964 0.727
98 208.05 23.047 3.289 -23.717 90 166 2.338 0.744
99 210.052 22.943 3.289 -23.719 90 164 2.662 0.708
100 212.057 22.983 3.289 -23.721 90 162 2.986 0.725
101 214.059 23.094 3.289 -23.723 90 160 3.387 0.713
102 216.061 23.027 3.289 -23.718 90 158 3.715 0.728
103 218.064 22.96 3.289 -23.716 90 156 4.061 0.705
104 220.068 22.995 3.289 -23.715 90 154 4.372 0.705
105 222.069 22.94 3.289 -23.716 90 152 4.691 0.715
106 224.071 23.02 3.289 -23.719 90 150 4.992 0.708
107 226.072 23.059 3.289 -23.72 90 148 5.232 0.713
108 228.076 22.996 3.289 -23.717 90 146 5.539 0.714
109 230.077 22.996 3.289 -23.721 90 144 5.812 0.749
110 232.082 22.982 3.288 -23.719 90 142 6.113 0.698
111 234.082 22.963 3.289 -23.716 90 140 6.374 0.688
112 236.085 22.978 3.289 -23.717 90 138 6.603 0.689
113 238.09 23.002 3.289 -23.718 90 136 6.944 0.723
114 240.09 22.899 3.288 -23.724 90 134 7.136 0.72
115 242.091 23.001 3.289 -23.719 90 132 7.361 0.685
116 244.095 23.045 3.289 -23.716 90 130 7.587 0.743
117 246.096 22.992 3.289 -23.721 90 128 7.795 0.701
118 248.099 22.967 3.288 -23.723 90 126 8.006 0.689
119 250.101 22.881 3.289 -23.718 90 124 8.202 0.73
120 252.103 23.003 3.289 -23.714 90 122 8.357 0.699
121 254.105 22.981 3.289 -23.719 90 120 8.606 0.721
122 256.108 22.968 3.289 -23.714 90 118 8.716 0.718
123 258.109 22.951 3.289 -23.718 90 116 8.813 0.719
124 260.113 23.093 3.288 -23.721 90 114 8.979 0.716
125 262.113 22.986 3.289 -23.719 90 112 9.097 0.727
126 264.115 22.96 3.289 -23.712 90 110 9.223 0.701
127 266.117 22.948 3.289 -23.714 90 108 9.361 0.763
128 268.119 22.954 3.289 -23.723 90 106 9.408 0.776
129 270.121 23.043 3.289 -23.716 90 104 9.542 0.76
130 272.122 22.904 3.289 -23.715 90 102 9.572 0.721
131 274.125 22.97 3.289 -23.722 90 100 9.647 0.727
132 276.126 22.881 3.289 -23.713 90 98 9.644 0.733
133 278.128 22.979 3.289 -23.719 90 96 9.709 0.724
134 280.13 23 3.289 -23.717 90 94 9.759 0.739
135 282.131 22.915 3.288 -23.718 90 92 9.821 0.674
136 284.133 22.95 3.289 -23.721 90 90 9.803 0.725
137 286.136 22.932 3.288 -23.716 90 88 9.814 0.648
138 288.136 23.041 3.289 -23.716 90 86 9.78 0.756
139 290.138 22.967 3.289 -23.715 90 84 9.772 0.728
140 292.139 23.033 3.289 -23.72 90 82 9.725 0.723
141 294.14 23.082 3.288 -23.718 90 80 9.708 0.728
142 296.142 22.991 3.289 -23.717 90 78 9.64 0.68
143 298.144 22.913 3.288 -23.718 90 76 9.604 0.69
144 300.144 22.909 3.289 -23.718 90 74 9.509 0.787
145 302.146 22.97 3.289 -23.721 90 72 9.48 0.697
146 304.148 22.995 3.289 -23.718 90 70 9.413 0.68
147 306.149 22.931 3.289 -23.718 90 68 9.265 0.707
148 308.15 22.904 3.288 -23.717 90 66 9.231 0.69
149 310.152 22.902 3.288 -23.721 90 64 9.041 0.717
150 312.153 23.008 3.289 -23.719 90 62 8.955 0.748
151 314.154 22.964 3.288 -23.719 90 60 8.826 0.768
152 316.155 23.02 3.288 -23.717 90 58 8.638 0.767
153 318.156 22.929 3.289 -23.718 90 56 8.509 0.755
154 320.157 22.964 3.289 -23.718 90 54 8.399 0.757
155 322.158 23.022 3.289 -23.717 90 52 8.163 0.692
156 324.161 22.937 3.289 -23.719 90 50 7.944 0.715
157 326.161 22.971 3.289 -23.713 90 48 7.701 0.745
158 328.162 22.956 3.289 -23.715 90 46 7.531 0.744
159 330.163 22.932 3.289 -23.72 90 44 7.382 0.749
160 332.163 22.927 3.289 -23.715 90 42 7.118 0.634
161 334.165 22.966 3.289 -23.72 90 40 6.914 0.719
162 336.165 22.948 3.289 -23.719 90 38 6.604 0.744
163 338.166 22.969 3.289 -23.721 90 36 6.295 0.736
164 340.167 22.957 3.289 -23.715 90 34 5.984 0.719
165 342.168 22.99 3.288 -23.715 90 32 5.771 0.699
166 344.169 22.917 3.288 -23.719 90 30 5.471 0.705
167 346.17 22.978 3.288 -23.718 90 28 5.011 0.697
168 348.17 22.883 3.289 -23.718 90 26 4.828 0.751
169 350.171 23.003 3.288 -23.723 90 24 4.502 0.726
170 352.172 23.011 3.289 -23.719 90 22 4.095 0.737
171 354.172 22.988 3.288 -23.723 90 20 3.802 0.737
172 356.173 22.93 3.289 -23.72 90 18 3.501 0.737
173 358.174 22.958 3.289 -23.719 90 16 3.083 0.72
174 360.174 22.96 3.289 -23.713 90 14 2.835 0.725
175 362.175 23.024 3.289 -23.723 90 12 2.462 0.742
176 364.175 22.955 3.289 -23.717 90 10 2.113 0.712
177 366.176 22.77 3.289 -23.721 90 8 1.869 0.737
178 368.176 23.035 3.289 -23.72 90 6 1.498 0.737
179 370.177 22.962 3.289 -23.719 90 4 1.185 0.723
180 372.177 23.001 3.289 -23.717 90 2 0.899 0.659
181 374.178 22.89 3.289 -23.714 90 0 0.718 0.681
182 389.304 23.061 3.288 -23.716 120 0 0.702 0.704
183 391.307 22.924 3.289 -23.72 120 2 0.826 0.692
184 393.313 22.978 3.289 -23.717 120 4 1.081 0.694
185 395.317 23.008 3.289 -23.722 120 6 1.421 0.682
186 397.324 22.949 3.289 -23.72 120 8 1.761 0.656
187 399.332 23.016 3.289 -23.719 120 10 2.093 0.652
188 401.335 22.953 3.288 -23.717 120 12 2.42 0.718
189 403.341 23.001 3.289 -23.718 120 14 2.763 0.685
190 405.346 22.914 3.289 -23.717 120 16 3.028 0.712
191 407.353 22.949 3.289 -23.72 120 18 3.421 0.68
192 409.357 22.931 3.289 -23.723 120 20 3.743 0.641
193 411.36 22.876 3.289 -23.719 120 22 4.021 0.656
194 413.365 22.949 3.289 -23.718 120 24 4.451 0.652
195 415.372 22.903 3.289 -23.717 120 26 4.696 0.705
196 417.376 22.922 3.289 -23.718 120 28 5.009 0.691
197 419.383 23.008 3.289 -23.718 120 30 5.371 0.663
198 421.387 22.925 3.288 -23.717 120 32 5.684 0.623
199 423.389 22.951 3.289 -23.722 120 34 6.008 0.698
200 425.397 23.023 3.289 -23.717 120 36 6.207 0.729
201 427.402 22.961 3.289 -23.718 120 38 6.418 0.727
202 429.404 23.072 3.289 -23.723 120 40 6.789 0.569
203 431.412 22.97 3.288 -23.722 120 42 7.067 0.683
204 433.417 22.924 3.289 -23.72 120 44 7.286 0.699
205 435.419 23.028 3.288 -23.721 120 46 7.39 0.689
206 437.426 23.005 3.289 -23.721 120 48 7.599 0.7
207 439.431 22.893 3.288 -23.716 120 50 7.783 0.707
208 441.437 22.902 3.289 -23.716 120 52 8.066 0.686
209 443.439 22.96 3.289 -23.722 120 54 8.17 0.714
210 445.442 23.001 3.289 -23.719 120 56 8.443 0.734
211 447.449 22.896 3.289 -23.719 120 58 8.563 0.726
212 449.453 23.009 3.288 -23.723 120 60 8.692 0.679
213 451.459 22.917 3.289 -23.719 120 62 8.881 0.654
214 453.459 22.927 3.289 -23.718 120 64 8.976 0.708
215 455.464 22.902 3.289 -23.72 120 66 9.078 0.611
216 457.47 22.998 3.289 -23.717 120 68 9.152 0.733
217 459.475 22.91 3.288 -23.719 120 70 9.342 0.592
218 461.48 22.869 3.288 -23.714 120 72 9.433 0.646
219 463.481 23.037 3.289 -23.715 120 74 9.507 0.704
220 465.486 22.955 3.288 -23.725 120 76 9.562 0.707
221 467.491 22.962 3.289 -23.72 120 78 9.628 0.641
222 469.495 23.012 3.288 -23.72 120 80 9.72 0.708
223 471.502 22.923 3.288 -23.716 120 82 9.689 0.593
224 473.504 22.905 3.289 -23.717 120 84 9.718 0.711
225 475.51 22.908 3.289 -23.719 120 86 9.723 0.705
226 477.515 22.967 3.289 -23.721 120 88 9.723 0.67
227 479.519 22.954 3.289 -23.719 120 90 9.768 0.654
228 481.523 23.024 3.289 -23.723 120 92 9.823 0.774
229 483.524 22.963 3.289 -23.715 120 94 9.706 0.741
230 485.528 22.999 3.289 -23.723 120 96 9.719 0.732
231 487.533 22.924 3.289 -23.721 120 98 9.7 0.68
232 489.537 22.926 3.288 -23.717 120 100 9.654 0.725
233 491.54 23.003 3.289 -23.715 120 102 9.533 0.693
234 493.544 22.956 3.288 -23.718 120 104 9.504 0.687
235 495.55 22.97 3.289 -23.719 120 106 9.326 0.707
236 497.554 22.982 3.289 -23.715 120 108 9.335 0.717
237 499.558 22.955 3.289 -23.718 120 110 9.232 0.591
238 501.561 22.961 3.289 -23.716 120 112 9.108 0.707
239 503.566 23.017 3.288 -23.714 120 114 8.959 0.658
240 505.57 23.044 3.289 -23.721 120 116 8.861 0.712
241 507.571 22.945 3.289 -23.721 120 118 8.701 0.708
242 509.577 22.87 3.289 -23.718 120 120 8.558 0.738
243 511.579 23.007 3.289 -23.718 120 122 8.312 0.703
244 513.585 22.954 3.289 -23.718 120 124 8.205 0.695
245 515.588 22.977 3.289 -23.717 120 126 7.99 0.689
246 517.59 22.923 3.289 -23.712 120 128 7.733 0.692
247 519.595 22.928 3.289 -23.717 120 130 7.603 0.726
248 521.597 23.003 3.288 -23.722 120 132 7.322 0.691
249 523.601 22.987 3.288 -23.718 120 134 7.161 0.673
250 525.604 22.96 3.289 -23.714 120 136 6.942 0.675
251 527.61 22.993 3.289 -23.716 120 138 6.599 0.709
252 529.611 22.992 3.289 -23.714 120 140 6.341 0.658
253 531.614 22.909 3.288 -23.718 120 142 6.048 0.686
254 533.618 23.021 3.289 -23.715 120 144 5.818 0.678
255 535.621 22.95 3.289 -23.721 120 146 5.537 0.658
256 537.625 22.935 3.289 -23.72 120 148 5.221 0.682
257 539.627 22.964 3.289 -23.715 120 150 4.987 0.668
258 541.633 22.922 3.289 -23.72 120 152 4.612 0.716
259 543.636 23.001 3.289 -23.722 120 154 4.36 0.706
260 545.637 22.972 3.289 -23.717 120 156 4.057 0.678
261 547.64 22.903 3.289 -23.715 120 158 3.611 0.698
262 549.644 22.968 3.289 -23.723 120 160 3.382 0.708
263 551.647 23.066 3.289 -23.721 120 162 3.03 0.68
264 553.65 23.009 3.289 -23.722 120 164 2.693 0.681
265 555.655 23.009 3.289 -23.719 120 166 2.338 0.699
266 557.656 23.024 3.289 -23.719 120 168 1.999 0.703
267 559.661 23.027 3.289 -23.724 120 170 1.734 0.682
268 561.662 23.023 3.289 -23.712 120 172 1.368 0.69
269 563.667 22.99 3.289 -23.72 120 174 1.083 0.697
270 565.67 23.003 3.288 -23.722 120 176 0.926 0.69
271 567.671 22.938 3.289 -23.725 120 178 0.706 0.69
272 569.676 22.963 3.289 -23.715 120 180 0.721 0.689
273 571.676 23.075 3.289 -23.717 120 178 0.719 0.636
274 573.68 22.969 3.289 -23.719 120 176 0.853 0.683
275 575.682 23.034 3.289 -23.719 120 174 1.106 0.687
276 577.686 22.984 3.289 -23.722 120 172 1.371 0.672
277 579.689 22.899 3.289 -23.721 120 170 1.708 0.691
278 581.69 22.98 3.289 -23.719 120 168 2.002 0.705
279 583.695 22.931 3.289 -23.721 120 166 2.305 0.682
280 585.698 22.932 3.289 -23.723 120 164 2.672 0.697
281 587.7 22.995 3.289 -23.719 120 162 2.983 0.664
282 589.702 22.906 3.289 -23.718 120 160 3.36 0.702
283 591.705 22.987 3.289 -23.719 120 158 3.698 0.686
284 593.708 23.012 3.289 -23.722 120 156 4.048 0.69
285 595.709 22.934 3.289 -23.719 120 154 4.309 0.693
286 597.713 22.913 3.289 -23.715 120 152 4.632 0.687
287 599.715 22.997 3.289 -23.718 120 150 4.953 0.667
288 601.716 23.002 3.288 -23.718 120 148 5.17 0.679
289 603.72 23.006 3.289 -23.718 120 146 5.56 0.664
290 605.722 22.895 3.289 -23.722 120 144 5.783 0.663
291 607.725 22.963 3.289 -23.721 120 142 6.07 0.706
292 609.726 22.909 3.289 -23.72 120 140 6.321 0.673
293 611.729 23.02 3.289 -23.724 120 138 6.51 0.666
294 613.731 22.896 3.288 -23.725 120 136 6.882 0.68
295 615.732 22.988 3.289 -23.721 120 134 7.092 0.672
296 617.736 22.948 3.289 -23.718 120 132 7.312 0.712
297 619.737 22.991 3.289 -23.719 120 130 7.553 0.7
298 621.742 23.039 3.289 -23.72 120 128 7.774 0.682
299 623.742 22.994 3.289 -23.719 120 126 7.971 0.677
300 625.744 22.966 3.289 -23.718 120 124 8.114 0.712
301 627.746 22.964 3.289 -23.715 120 122 8.308 0.698
302 629.747 23.026 3.289 -23.719 120 120 8.519 0.703
303 631.75 22.952 3.288 -23.717 120 118 8.662 0.7
304 633.751 22.904 3.288 -23.721 120 116 8.819 0.64
305 635.753 22.852 3.288 -23.716 120 114 8.99 0.674
306 637.755 22.89 3.289 -23.719 120 112 9.101 0.673
307 639.758 22.937 3.289 -23.722 120 110 9.167 0.699
308 641.759 22.89 3.289 -23.715 120 108 9.233 0.729
309 643.761 22.907 3.289 -23.716 120 106 9.386 0.707
310 645.765 23.011 3.289 -23.723 120 104 9.481 0.7
311 647.765 22.953 3.289 -23.717 120 102 9.479 0.677
312 649.767 23.029 3.289 -23.717 120 100 9.521 0.704
313 651.769 23.01 3.289 -23.72 120 98 9.592 0.714
314 653.77 22.982 3.289 -23.715 120 96 9.597 0.736
315 655.772 22.908 3.289 -23.714 120 94 9.607 0.71
316 657.773 22.88 3.289 -23.724 120 92 9.71 0.694
317 659.775 22.949 3.289 -23.718 120 90 9.723 0.663
318 661.777 22.927 3.289 -23.715 120 88 9.778 0.611
319 663.779 22.974 3.289 -23.719 120 86 9.743 0.703
320 665.78 22.945 3.289 -23.723 120 84 9.731 0.633
321 667.781 22.928 3.289 -23.715 120 82 9.697 0.676
322 669.783 23.012 3.289 -23.721 120 80 9.669 0.702
323 671.784 22.973 3.288 -23.72 120 78 9.614 0.728
324 673.786 22.895 3.289 -23.718 120 76 9.566 0.692
325 675.787 22.988 3.288 -23.714 120 74 9.523 0.717
326 677.79 22.973 3.288 -23.721 120 72 9.429 0.677
327 679.79 22.959 3.289 -23.72 120 70 9.36 0.657
328 681.791 23.031 3.289 -23.72 120 68 9.234 0.733
329 683.792 23.007 3.289 -23.722 120 66 9.122 0.67
330 685.794 23.003 3.289 -23.711 120 64 8.979 0.711
331 687.795 22.927 3.289 -23.718 120 62 8.848 0.671
332 689.796 22.982 3.289 -23.721 120 60 8.763 0.71
333 691.797 22.995 3.289 -23.717 120 58 8.636 0.721
334 693.799 22.87 3.289 -23.716 120 56 8.44 0.622
335 695.799 22.881 3.289 -23.72 120 54 8.309 0.699
336 697.8 23 3.289 -23.717 120 52 8.136 0.705
337 699.802 22.998 3.289 -23.719 120 50 7.894 0.63
338 701.803 22.915 3.289 -23.719 120 48 7.656 0.714
339 703.803 22.926 3.289 -23.717 120 46 7.486 0.64
340 705.805 22.949 3.289 -23.722 120 44 7.286 0.714
341 707.806 22.939 3.288 -23.722 120 42 7.085 0.65
342 709.806 22.925 3.289 -23.721 120 40 6.783 0.675
343 711.807 23.054 3.289 -23.721 120 38 6.501 0.601
344 713.808 23.025 3.288 -23.717 120 36 6.258 0.638
345 715.809 22.936 3.289 -23.718 120 34 5.957 0.725
346 717.81 22.907 3.289 -23.72 120 32 5.706 0.693
347 719.81 22.982 3.289 -23.716 120 30 5.421 0.672
348 721.811 23.082 3.289 -23.721 120 28 5.084 0.705
349 723.812 22.929 3.289 -23.719 120 26 4.695 0.678
350 725.813 22.961 3.289 -23.717 120 24 4.484 0.711
351 727.813 23.04 3.289 -23.723 120 22 4.06 0.679
352 729.814 23.008 3.289 -23.719 120 20 3.696 0.663
353 731.815 22.986 3.289 -23.717 120 18 3.446 0.708
354 733.817 22.938 3.289 -23.726 120 16 3.014 0.637
355 735.817 22.991 3.289 -23.718 120 14 2.765 0.705
356 737.818 23.017 3.289 -23.717 120 12 2.427 0.672
357 739.818 22.941 3.289 -23.719 120 10 2.118 0.692
358 741.818 23.037 3.288 -23.715 120 8 1.771 0.697
359 743.819 22.995 3.289 -23.717 120 6 1.432 0.707
360 745.819 23.008 3.289 -23.718 120 4 1.127 0.671
361 747.819 23.001 3.289 -23.723 120 2 0.856 0.643
362 749.819 22.989 3.289 -23.718 120 0 0.672 0.704
363 761.605 22.916 3.289 -23.72 135 0 0.698 0.703
364 763.611 22.957 3.289 -23.717 135 2 0.812 0.654
365 765.616 23.016 3.289 -23.72 135 4 1.109 0.665
366 767.623 23.027 3.289 -23.719 135 6 1.421 0.687
367 769.629 23.001 3.289 -23.715 135 8 1.798 0.692
368 771.632 23.021 3.289 -23.717 135 10 2.09 0.668
369 773.638 23.01 3.289 -23.718 135 12 2.385 0.67
370 775.643 22.877 3.289 -23.721 135 14 2.767 0.659
371 777.645 22.915 3.289 -23.723 135 16 3.004 0.701
372 779.655 22.872 3.289 -23.725 135 18 3.38 0.704
373 781.657 22.97 3.288 -23.72 135 20 3.643 0.712
374 783.662 23.029 3.288 -23.72 135 22 4.018 0.658
375 785.669 22.945 3.289 -23.721 135 24 4.405 0.687
376 787.673 22.827 3.289 -23.72 135 26 4.679 0.714
377 789.676 22.987 3.289 -23.718 135 28 4.989 0.68
378 791.685 22.945 3.289 -23.72 135 30 5.372 0.676
379 793.687 22.943 3.289 -23.712 135 32 5.638 0.717
380 795.694 23.016 3.289 -23.715 135 34 5.959 0.699
381 797.695 23.008 3.289 -23.723 135 36 6.085 0.722
382 799.701 22.979 3.289 -23.719 135 38 6.39 0.682
383 801.707 23.021 3.289 -23.719 135 40 6.751 0.711
384 803.712 22.909 3.289 -23.72 135 42 7.004 0.649
385 805.718 22.921 3.289 -23.721 135 44 7.272 0.664
386 807.721 22.977 3.289 -23.716 135 46 7.475 0.607
387 809.725 22.982 3.289 -23.719 135 48 7.629 0.706
388 811.731 22.953 3.289 -23.716 135 50 7.819 0.666
389 813.737 22.962 3.289 -23.723 135 52 7.954 0.686
390 815.739 22.945 3.288 -23.725 135 54 8.235 0.702
391 817.743 22.967 3.289 -23.72 135 56 8.393 0.673
392 819.747 22.949 3.289 -23.719 135 58 8.544 0.66
393 821.755 22.868 3.289 -23.716 135 60 8.663 0.637
394 823.756 22.883 3.289 -23.718 135 62 8.858 0.664
395 825.761 23.053 3.289 -23.72 135 64 9.003 0.692
396 827.766 23.055 3.288 -23.719 135 66 9.074 0.671
397 829.772 22.978 3.289 -23.715 135 68 9.154 0.664
398 831.777 22.92 3.288 -23.717 135 70 9.276 0.734
399 833.782 22.942 3.288 -23.72 135 72 9.38 0.691
400 835.783 22.927 3.289 -23.72 135 74 9.417 0.609
401 837.787 22.932 3.289 -23.72 135 76 9.551 0.711
402 839.792 22.944 3.288 -23.714 135 78 9.599 0.725
403 841.795 22.87 3.289 -23.718 135 80 9.635 0.706
404 843.802 23.003 3.288 -23.721 135 82 9.692 0.716
405 845.807 22.955 3.289 -23.726 135 84 9.715 0.698
406 847.808 22.976 3.288 -23.722 135 86 9.737 0.724
407 849.816 22.895 3.288 -23.72 135 88 9.796 0.666
408 851.818 22.908 3.289 -23.72 135 90 9.732 0.698
409 853.823 22.952 3.289 -23.718 135 92 9.763 0.607
410 855.827 23.037 3.289 -23.713 135 94 9.768 0.717
411 857.829 22.878 3.288 -23.72 135 96 9.646 0.707
412 859.835 22.967 3.289 -23.721 135 98 9.661 0.683
413 861.837 22.979 3.289 -23.719 135 100 9.608 0.673
414 863.841 23 3.288 -23.718 135 102 9.549 0.706
415 865.846 22.905 3.289 -23.721 135 104 9.48 0.627
416 867.85 22.985 3.289 -23.721 135 106 9.403 0.697
417 869.856 22.894 3.288 -23.72 135 108 9.265 0.695
418 871.858 23.005 3.288 -23.719 135 110 9.211 0.69
419 873.862 22.978 3.288 -23.715 135 112 9.055 0.693
420 875.866 22.915 3.288 -23.717 135 114 9.004 0.674
421 877.87 23.087 3.289 -23.719 135 116 8.848 0.709
422 879.872 22.966 3.288 -23.718 135 118 8.693 0.691
423 881.874 22.893 3.289 -23.72 135 120 8.555 0.703
424 883.88 22.915 3.289 -23.719 135 122 8.334 0.728
425 885.883 23.037 3.289 -23.718 135 124 8.165 0.649
426 887.888 23.049 3.289 -23.715 135 126 7.968 0.669
427 889.89 23.015 3.289 -23.721 135 128 7.792 0.695
428 891.895 22.878 3.289 -23.716 135 130 7.521 0.648
429 893.899 22.971 3.289 -23.718 135 132 7.362 0.666
430 895.902 23.008 3.289 -23.717 135 134 7.136 0.684
431 897.905 22.944 3.289 -23.718 135 136 6.911 0.662
432 899.909 22.964 3.289 -23.723 135 138 6.599 0.643
433 901.912 23.034 3.288 -23.715 135 140 6.339 0.677
434 903.913 22.995 3.289 -23.722 135 142 6.096 0.659
435 905.921 23.025 3.288 -23.718 135 144 5.869 0.674
436 907.922 22.936 3.288 -23.721 135 146 5.546 0.691
437 909.924 22.93 3.289 -23.717 135 148 5.201 0.675
438 911.93 22.986 3.289 -23.721 135 150 4.96 0.683
439 913.933 22.838 3.289 -23.717 135 152 4.673 0.679
440 915.933 22.966 3.289 -23.718 135 154 4.323 0.671
441 917.937 22.982 3.289 -23.722 135 156 4.082 0.683
442 919.941 23.003 3.289 -23.724 135 158 3.7 0.709
443 921.944 22.984 3.289 -23.72 135 160 3.414 0.639
444 923.946 22.894 3.289 -23.723 135 162 3.066 0.687
445 925.951 22.942 3.289 -23.72 135 164 2.75 0.678
446 927.952 23.037 3.289 -23.723 135 166 2.393 0.652
447 929.957 23.005 3.289 -23.721 135 168 2.065 0.677
448 931.958 22.933 3.289 -23.72 135 170 1.814 0.645
449 933.965 22.938 3.289 -23.718 135 172 1.419 0.664
450 935.965 23.033 3.289 -23.72 135 174 1.128 0.67
451 937.969 22.972 3.288 -23.723 135 176 0.855 0.653
452 939.972 23.002 3.289 -23.717 135 178 0.709 0.686
453 941.973 23.003 3.289 -23.721 135 180 0.71 0.698
454 943.976 23.023 3.289 -23.72 135 178 0.72 0.661
455 945.979 22.922 3.289 -23.72 135 176 0.891 0.688
456 947.983 22.925 3.289 -23.721 135 174 1.087 0.697
457 949.987 22.93 3.289 -23.718 135 172 1.412 0.668
458 951.989 23.016 3.288 -23.722 135 170 1.751 0.677
459 953.991 22.979 3.289 -23.721 135 168 2.026 0.667
460 955.993 23.016 3.289 -23.72 135 166 2.399 0.668
461 957.995 23.018 3.289 -23.725 135 164 2.701 0.659
462 959.999 22.915 3.289 -23.725 135 162 3.05 0.666
463 962.001 22.947 3.289 -23.719 135 160 3.358 0.676
464 964.003 22.961 3.289 -23.719 135 158 3.717 0.691
465 966.006 22.986 3.289 -23.716 135 156 4.055 0.68
466 968.01 22.972 3.289 -23.715 135 154 4.338 0.653
467 970.011 22.938 3.289 -23.719 135 152 4.622 0.681
468 972.013 22.917 3.289 -23.717 135 150 4.956 0.666
469 974.016 22.932 3.288 -23.717 135 148 5.236 0.602
470 976.018 23.036 3.288 -23.721 135 146 5.537 0.655
471 978.021 23.014 3.289 -23.722 135 144 5.851 0.69
472 980.022 22.92 3.289 -23.718 135 142 6.077 0.681
473 982.025 23.023 3.289 -23.721 135 140 6.256 0.66
474 984.027 22.873 3.289 -23.721 135 138 6.597 0.698
475 986.032 22.98 3.289 -23.722 135 136 6.928 0.685
476 988.032 22.933 3.289 -23.72 135 134 7.099 0.691
477 990.034 22.886 3.289 -23.715 135 132 7.316 0.689
478 992.036 23.052 3.289 -23.716 135 130 7.591 0.698
479 994.038 22.959 3.289 -23.716 135 128 7.769 0.665
480 996.04 22.945 3.288 -23.715 135 126 7.972 0.715
481 998.042 22.992 3.289 -23.715 135 124 8.204 0.688
482 1000.044 22.802 3.289 -23.72 135 122 8.323 0.712
483 1002.046 22.967 3.289 -23.718 135 120 8.473 0.61
484 1004.048 23.041 3.289 -23.721 135 118 8.666 0.686
485 1006.05 22.942 3.288 -23.719 135 116 8.847 0.696
486 1008.053 23.037 3.288 -23.719 135 114 8.988 0.671
487 1010.055 22.976 3.288 -23.72 135 112 9.016 0.699
488 1012.056 22.908 3.289 -23.716 135 110 9.184 0.671
489 1014.057 22.977 3.289 -23.719 135 108 9.244 0.668
490 1016.06 22.945 3.289 -23.72 135 106 9.403 0.702
491 1018.061 23.066 3.289 -23.716 135 104 9.482 0.711
492 1020.063 23.048 3.289 -23.718 135 102 9.509 0.663
493 1022.066 22.997 3.288 -23.72 135 100 9.613 0.651
494 1024.066 22.895 3.288 -23.717 135 98 9.651 0.691
495 1026.069 23.021 3.289 -23.716 135 96 9.698 0.682
496 1028.07 23.029 3.288 -23.715 135 94 9.702 0.706
497 1030.071 22.957 3.289 -23.721 135 92 9.733 0.684
498 1032.073 22.98 3.289 -23.721 135 90 9.738 0.695
499 1034.075 23.008 3.289 -23.72 135 88 9.738 0.703
500 1036.076 23.043 3.289 -23.714 135 86 9.715 0.665
501 1038.079 23.009 3.288 -23.717 135 84 9.727 0.73
502 1040.08 22.964 3.289 -23.723 135 82 9.617 0.695
503 1042.081 22.975 3.289 -23.717 135 80 9.635 0.695
504 1044.082 22.881 3.288 -23.719 135 78 9.575 0.683
505 1046.083 22.961 3.288 -23.717 135 76 9.577 0.692
506 1048.085 22.983 3.289 -23.718 135 74 9.479 0.61
507 1050.086 23.017 3.289 -23.721 135 72 9.38 0.689
508 1052.088 23.029 3.289 -23.724 135 70 9.34 0.677
509 1054.089 23.043 3.289 -23.714 135 68 9.202 0.698
510 1056.09 22.935 3.288 -23.722 135 66 9.095 0.608
511 1058.092 22.928 3.289 -23.722 135 64 8.936 0.681
512 1060.092 23.029 3.289 -23.719 135 62 8.873 0.631
513 1062.093 22.872 3.288 -23.72 135 60 8.757 0.664
514 1064.095 22.99 3.289 -23.718 135 58 8.597 0.718
515 1066.096 23.087 3.289 -23.718 135 56 8.421 0.645
516 1068.097 22.903 3.288 -23.721 135 54 8.27 0.699
517 1070.098 22.913 3.289 -23.721 135 52 8.058 0.702
518 1072.099 22.991 3.288 -23.718 135 50 7.834 0.697
519 1074.1 22.992 3.289 -23.718 135 48 7.617 0.728
520 1076.101 22.984 3.289 -23.715 135 46 7.494 0.662
521 1078.102 23.028 3.289 -23.717 135 44 7.242 0.666
522 1080.105 23.094 3.289 -23.721 135 42 7.049 0.695
523 1082.105 22.937 3.289 -23.72 135 40 6.749 0.719
524 1084.105 22.974 3.288 -23.716 135 38 6.489 0.63
525 1086.106 22.987 3.289 -23.717 135 36 6.161 0.696
526 1088.106 22.988 3.289 -23.723 135 34 5.996 0.671
527 1090.107 22.918 3.288 -23.715 135 32 5.689 0.686
528 1092.108 22.993 3.289 -23.721 135 30 5.349 0.674
529 1094.109 22.97 3.288 -23.719 135 28 5.002 0.663
530 1096.109 22.96 3.289 -23.723 135 26 4.686 0.679
531 1098.11 22.964 3.288 -23.721 135 24 4.458 0.723
532 1100.111 22.844 3.289 -23.721 135 22 3.988 0.665
533 1102.111 22.954 3.289 -23.721 135 20 3.637 0.702
534 1104.112 22.878 3.289 -23.721 135 18 3.38 0.682
535 1106.112 22.882 3.289 -23.72 135 16 2.983 0.652
536 1108.113 22.949 3.289 -23.718 135 14 2.747 0.695
537 1110.113 22.925 3.289 -23.727 135 12 2.383 0.661
538 1112.114 22.962 3.289 -23.721 135 10 2.053 0.641
539 1114.114 22.954 3.288 -23.723 135 8 1.756 0.674
540 1116.115 22.861 3.289 -23.721 135 6 1.414 0.677
541 1118.115 23.022 3.289 -23.723 135 4 1.11 0.668
542 1120.116 23.009 3.289 -23.725 135 2 0.761 0.64
543 1122.116 23.012 3.289 -23.719 135 0 0.664 0.646
544 1133.905 23.05 3.289 -23.722 150 0 0.691 0.684
545 1135.909 22.993 3.289 -23.719 150 2 0.817 0.677
546 1137.916 22.982 3.289 -23.722 150 4 1.032 0.683
547 1139.922 23.041 3.289 -23.72 150 6 1.42 0.656
548 1141.925 22.903 3.289 -23.721 150 8 1.768 0.708
549 1143.933 23.003 3.289 -23.72 150 10 2.071 0.685
550 1145.938 22.952 3.288 -23.722 150 12 2.398 0.664
551 1147.94 22.974 3.289 -23.722 150 14 2.726 0.659
552 1149.944 22.884 3.289 -23.72 150 16 2.99 0.699
553 1151.952 22.929 3.289 -23.718 150 18 3.405 0.702
554 1153.956 22.882 3.289 -23.72 150 20 3.608 0.677
555 1155.963 22.998 3.288 -23.717 150 22 3.981 0.608
556 1157.968 22.966 3.289 -23.722 150 24 4.373 0.661
557 1159.97 22.959 3.289 -23.72 150 26 4.659 0.68
558 1161.979 22.957 3.289 -23.726 150 28 4.987 0.695
559 1163.98 23.007 3.288 -23.718 150 30 5.368 0.732
560 1165.988 22.955 3.288 -23.721 150 32 5.651 0.726
561 1167.993 22.948 3.289 -23.721 150 34 5.913 0.69
562 1169.997 23.075 3.289 -23.727 150 36 6.108 0.661
563 1172.001 22.99 3.289 -23.721 150 38 6.397 0.666
564 1174.006 22.966 3.289 -23.726 150 40 6.686 0.738
565 1176.012 23.004 3.289 -23.717 150 42 6.994 0.598
566 1178.015 22.908 3.289 -23.719 150 44 7.269 0.706
567 1180.019 22.943 3.289 -23.718 150 46 7.346 0.706
568 1182.024 22.989 3.289 -23.719 150 48 7.591 0.681
569 1184.031 22.931 3.289 -23.72 150 50 7.854 0.672
570 1186.033 22.999 3.289 -23.721 150 52 7.985 0.719
571 1188.037 22.95 3.289 -23.717 150 54 8.238 0.672
572 1190.045 23.085 3.289 -23.721 150 56 8.33 0.67
573 1192.049 22.994 3.289 -23.721 150 58 8.486 0.727
574 1194.054 22.98 3.289 -23.717 150 60 8.683 0.686
575 1196.055 22.97 3.289 -23.718 150 62 8.856 0.7
576 1198.061 22.961 3.289 -23.719 150 64 8.906 0.724
577 1200.066 22.94 3.289 -23.718 150 66 9.107 0.667
578 1202.071 22.885 3.289 -23.718 150 68 9.226 0.667
579 1204.072 22.955 3.288 -23.719 150 70 9.265 0.679
580 1206.077 23.049 3.289 -23.718 150 72 9.374 0.71
581 1208.082 23.074 3.288 -23.724 150 74 9.497 0.641
582 1210.086 23.016 3.288 -23.721 150 76 9.548 0.694
583 1212.089 23.045 3.288 -23.72 150 78 9.61 0.719
584 1214.096 22.977 3.288 -23.723 150 80 9.678 0.717
585 1216.103 22.894 3.289 -23.722 150 82 9.691 0.708
586 1218.104 22.969 3.289 -23.719 150 84 9.724 0.682
587 1220.108 23.048 3.289 -23.721 150 86 9.716 0.744
588 1222.114 23.009 3.289 -23.721 150 88 9.713 0.715
589 1224.115 22.951 3.288 -23.717 150 90 9.744 0.658
590 1226.119 22.987 3.289 -23.721 150 92 9.767 0.713
591 1228.125 22.969 3.289 -23.714 150 94 9.64 0.73
592 1230.129 22.963 3.289 -23.716 150 96 9.602 0.672
593 1232.131 22.99 3.289 -23.721 150 98 9.629 0.658
594 1234.135 22.909 3.289 -23.716 150 100 9.609 0.712
595 1236.141 23.028 3.288 -23.72 150 102 9.526 0.713
596 1238.146 22.984 3.289 -23.714 150 104 9.466 0.614
597 1240.147 22.982 3.289 -23.716 150 106 9.335 0.652
598 1242.153 22.967 3.289 -23.72 150 108 9.355 0.701
599 1244.157 22.972 3.289 -23.716 150 110 9.208 0.729
600 1246.161 23.033 3.289 -23.72 150 112 9.141 0.695
601 1248.162 23 3.289 -23.724 150 114 8.985 0.697
602 1250.168 23.079 3.288 -23.722 150 116 8.847 0.711
603 1252.17 22.936 3.289 -23.721 150 118 8.711 0.74
604 1254.172 22.928 3.288 -23.719 150 120 8.573 0.611
605 1256.178 23.02 3.289 -23.722 150 122 8.307 0.639
606 1258.18 22.999 3.289 -23.719 150 124 8.176 0.718
607 1260.186 23.032 3.289 -23.716 150 126 7.966 0.702
608 1262.187 23.045 3.289 -23.721 150 128 7.764 0.712
609 1264.191 23.01 3.288 -23.718 150 130 7.616 0.648
610 1266.194 23.002 3.289 -23.722 150 132 7.277 0.716
611 1268.2 22.95 3.289 -23.717 150 134 7.17 0.701
612 1270.201 23.1 3.289 -23.717 150 136 6.862 0.721
613 1272.207 22.902 3.288 -23.724 150 138 6.619 0.704
614 1274.208 22.992 3.289 -23.724 150 140 6.39 0.663
615 1276.211 23.009 3.289 -23.717 150 142 6.089 0.71
616 1278.215 22.968 3.289 -23.72 150 144 5.844 0.7
617 1280.22 23.033 3.289 -23.718 150 146 5.519 0.625
618 1282.223 22.942 3.289 -23.72 150 148 5.281 0.698
619 1284.226 22.985 3.289 -23.72 150 150 4.988 0.692
620 1286.23 23.017 3.289 -23.723 150 152 4.678 0.686
621 1288.233 22.917 3.289 -23.727 150 154 4.363 0.722
622 1290.234 23.019 3.289 -23.718 150 156 4.092 0.677
623 1292.237 22.987 3.289 -23.723 150 158 3.738 0.659
624 1294.243 23.012 3.289 -23.722 150 160 3.366 0.675
625 1296.245 22.97 3.289 -23.725 150 162 3.108 0.692
626 1298.248 22.848 3.288 -23.722 150 164 2.786 0.703
627 1300.251 22.962 3.289 -23.724 150 166 2.385 0.676
628 1302.255 22.93 3.289 -23.717 150 168 2.099 0.682
629 1304.257 22.928 3.289 -23.721 150 170 1.805 0.707
630 1306.26 22.993 3.289 -23.722 150 172 1.435 0.679
631 1308.263 22.933 3.289 -23.719 150 174 1.161 0.667
632 1310.264 22.984 3.289 -23.715 150 176 0.921 0.699
633 1312.268 22.961 3.289 -23.719 150 178 0.686 0.673
634 1314.271 23.015 3.289 -23.721 150 180 0.705 0.681
635 1316.273 23.041 3.288 -23.721 150 178 0.7 0.667
636 1318.278 23.037 3.289 -23.719 150 176 0.805 0.655
637 1320.28 23.087 3.289 -23.719 150 174 1.155 0.672
638 1322.282 22.923 3.289 -23.721 150 172 1.433 0.686
639 1324.284 23.013 3.289 -23.721 150 170 1.783 0.688
640 1326.288 23.011 3.289 -23.72 150 168 2.07 0.694
641 1328.291 22.999 3.289 -23.718 150 166 2.399 0.688
642 1330.293 22.944 3.289 -23.727 150 164 2.748 0.702
643 1332.296 22.96 3.289 -23.722 150 162 3.034 0.691
644 1334.3 23.039 3.289 -23.718 150 160 3.427 0.69
645 1336.301 22.981 3.289 -23.723 150 158 3.729 0.681
646 1338.302 22.986 3.289 -23.716 150 156 4.066 0.675
647 1340.304 22.995 3.289 -23.723 150 154 4.353 0.665
648 1342.308 23.012 3.288 -23.722 150 152 4.644 0.683
649 1344.311 23.028 3.289 -23.721 150 150 4.992 0.672
650 1346.313 23.038 3.289 -23.721 150 148 5.172 0.685
651 1348.314 23.013 3.289 -23.723 150 146 5.495 0.689
652 1350.317 22.945 3.288 -23.719 150 144 5.833 0.685
653 1352.322 23.069 3.289 -23.723 150 142 6.116 0.708
654 1354.322 23.012 3.289 -23.723 150 140 6.363 0.676
655 1356.323 22.991 3.289 -23.717 150 138 6.558 0.671
656 1358.327 23.088 3.289 -23.722 150 136 6.907 0.676
657 1360.328 23.009 3.289 -23.721 150 134 7.11 0.691
658 1362.331 22.91 3.289 -23.714 150 132 7.327 0.685
659 1364.333 22.981 3.289 -23.718 150 130 7.604 0.686
660 1366.335 22.961 3.288 -23.723 150 128 7.762 0.707
661 1368.337 22.932 3.289 -23.723 150 126 7.992 0.703
662 1370.339 22.88 3.289 -23.719 150 124 8.177 0.687
663 1372.34 22.896 3.289 -23.717 150 122 8.287 0.691
664 1374.345 22.979 3.289 -23.715 150 120 8.535 0.675
665 1376.345 22.961 3.289 -23.721 150 118 8.689 0.666
666 1378.347 23.009 3.289 -23.721 150 116 8.767 0.702
667 1380.349 22.939 3.289 -23.722 150 114 8.966 0.679
668 1382.351 23.041 3.288 -23.725 150 112 9.104 0.723
669 1384.351 22.987 3.289 -23.719 150 110 9.189 0.664
670 1386.354 22.952 3.289 -23.719 150 108 9.213 0.611
671 1388.356 22.958 3.289 -23.72 150 106 9.389 0.681
672 1390.358 22.967 3.289 -23.718 150 104 9.449 0.656
673 1392.359 22.952 3.288 -23.72 150 102 9.538 0.704
674 1394.361 22.915 3.288 -23.716 150 100 9.618 0.707
675 1396.363 23.062 3.289 -23.717 150 98 9.654 0.702
676 1398.364 22.977 3.289 -23.716 150 96 9.658 0.754
677 1400.368 23.023 3.289 -23.717 150 94 9.73 0.709
678 1402.369 23.016 3.289 -23.722 150 92 9.753 0.677
679 1404.369 22.984 3.289 -23.722 150 90 9.756 0.675
680 1406.371 22.941 3.289 -23.718 150 88 9.76 0.688
681 1408.372 22.931 3.289 -23.717 150 86 9.731 0.625
682 1410.373 23.001 3.289 -23.72 150 84 9.707 0.623
683 1412.375 22.999 3.289 -23.717 150 82 9.667 0.69
684 1414.376 22.953 3.289 -23.712 150 80 9.628 0.73
685 1416.378 22.92 3.289 -23.72 150 78 9.587 0.688
686 1418.38 23.023 3.289 -23.72 150 76 9.574 0.669
687 1420.381 22.93 3.289 -23.72 150 74 9.417 0.681
688 1422.382 22.991 3.289 -23.716 150 72 9.306 0.678
689 1424.383 23.073 3.289 -23.718 150 70 9.35 0.709
690 1426.385 22.973 3.288 -23.716 150 68 9.196 0.692
691 1428.386 23.038 3.289 -23.72 150 66 9.134 0.692
692 1430.387 22.941 3.289 -23.714 150 64 8.97 0.657
693 1432.388 22.874 3.289 -23.717 150 62 8.89 0.682
694 1434.389 23.028 3.289 -23.724 150 60 8.792 0.695
695 1436.39 23.023 3.288 -23.716 150 58 8.561 0.686
696 1438.394 22.922 3.289 -23.72 150 56 8.434 0.709
697 1440.394 22.936 3.289 -23.719 150 54 8.277 0.699
698 1442.394 22.898 3.289 -23.711 150 52 8.091 0.66
699 1444.395 22.968 3.289 -23.719 150 50 7.838 0.724
700 1446.395 22.997 3.289 -23.725 150 48 7.658 0.733
701 1448.396 22.993 3.289 -23.726 150 46 7.435 0.695
702 1450.397 22.983 3.289 -23.719 150 44 7.218 0.685
703 1452.398 22.995 3.289 -23.728 150 42 7.049 0.665
704 1454.399 22.932 3.289 -23.719 150 40 6.774 0.708
705 1456.4 22.924 3.289 -23.724 150 38 6.383 0.698
706 1458.401 23.041 3.289 -23.721 150 36 6.243 0.717
707 1460.401 23.015 3.289 -23.719 150 34 5.859 0.687
708 1462.402 22.961 3.289 -23.724 150 32 5.621 0.674
709 1464.403 22.932 3.289 -23.719 150 30 5.348 0.659
710 1466.404 22.946 3.289 -23.723 150 28 4.952 0.662
711 1468.404 22.974 3.289 -23.725 150 26 4.698 0.686
712 1470.405 22.928 3.289 -23.715 150 24 4.419 0.67
713 1472.406 22.94 3.289 -23.72 150 22 3.997 0.691
714 1474.406 23.067 3.289 -23.72 150 20 3.684 0.683
715 1476.407 23.008 3.289 -23.723 150 18 3.355 0.614
716 1478.407 22.955 3.289 -23.718 150 16 2.975 0.671
717 1480.408 23.009 3.289 -23.718 150 14 2.668 0.69
718 1482.408 22.94 3.289 -23.718 150 12 2.329 0.627
719 1484.409 22.999 3.289 -23.721 150 10 2.042 0.671
720 1486.409 22.982 3.289 -23.721 150 8 1.703 0.714
721 1488.409 22.909 3.289 -23.714 150 6 1.385 0.727
722 1490.41 22.975 3.289 -23.722 150 4 1.089 0.71
723 1492.41 22.974 3.289 -23.723 150 2 0.805 0.686
724 1494.41 22.928 3.289 -23.721 150 0 0.628 0.677
725 1506.206 23.018 3.289 -23.716 180 0 0.648 0.685
726 1508.213 22.936 3.289 -23.723 180 2 0.754 0.701
727 1510.219 23.009 3.289 -23.715 180 4 1.013 0.706
728 1512.224 23.038 3.289 -23.721 180 6 1.31 0.686
729 1514.225 22.945 3.289 -23.721 180 8 1.681 0.695
730 1516.235 22.945 3.289 -23.72 180 10 2.001 0.717
731 1518.237 23.063 3.289 -23.725 180 12 2.275 0.677
732 1520.241 22.954 3.289 -23.718 180 14 2.637 0.606
733 1522.249 23.042 3.289 -23.721 180 16 2.901 0.682
734 1524.253 22.982 3.289 -23.725 180 18 3.307 0.677
735 1526.26 23.014 3.289 -23.724 180 20 3.631 0.702
736 1528.266 23.033 3.289 -23.72 180 22 3.882 0.681
737 1530.268 22.979 3.289 -23.726 180 24 4.295 0.729
738 1532.272 23.044 3.289 -23.724 180 26 4.614 0.713
739 1534.278 22.985 3.289 -23.714 180 28 4.888 0.722
740 1536.281 22.941 3.289 -23.716 180 30 5.301 0.69
741 1538.288 22.996 3.289 -23.718 180 32 5.507 0.666
742 1540.294 22.942 3.289 -23.724 180 34 5.829 0.722
743 1542.298 22.968 3.288 -23.721 180 36 6.012 0.613
744 1544.303 22.991 3.289 -23.72 180 38 6.288 0.734
745 1546.309 23.002 3.289 -23.722 180 40 6.561 0.71
746 1548.312 23.029 3.289 -23.718 180 42 6.953 0.633
747 1550.316 22.989 3.289 -23.723 180 44 7.153 0.7
748 1552.321 22.98 3.289 -23.721 180 46 7.345 0.624
749 1554.33 23.025 3.289 -23.725 180 48 7.519 0.66
750 1556.332 23.028 3.288 -23.718 180 50 7.743 0.645
751 1558.336 22.963 3.288 -23.721 180 52 7.969 0.611
752 1560.339 22.911 3.288 -23.715 180 54 8.193 0.699
753 1562.344 23.06 3.289 -23.721 180 56 8.365 0.612
754 1564.351 22.991 3.289 -23.717 180 58 8.471 0.702
755 1566.352 23.095 3.289 -23.718 180 60 8.63 0.677
756 1568.357 23.034 3.289 -23.719 180 62 8.783 0.694
757 1570.362 23.016 3.289 -23.724 180 64 8.882 0.708
758 1572.368 22.98 3.289 -23.717 180 66 9.061 0.689
759 1574.373 22.988 3.288 -23.719 180 68 9.136 0.671
760 1576.373 22.953 3.289 -23.721 180 70 9.26 0.741
761 1578.378 23.001 3.289 -23.722 180 72 9.332 0.702
762 1580.386 22.964 3.289 -23.722 180 74 9.437 0.712
763 1582.389 22.987 3.288 -23.723 180 76 9.488 0.588
764 1584.394 22.941 3.289 -23.72 180 78 9.554 0.71
765 1586.395 23.037 3.289 -23.714 180 80 9.684 0.68
766 1588.4 22.899 3.289 -23.718 180 82 9.686 0.72
767 1590.404 22.972 3.288 -23.723 180 84 9.721 0.714
768 1592.41 22.968 3.289 -23.718 180 86 9.733 0.707
769 1594.411 23.003 3.289 -23.725 180 88 9.71 0.729
770 1596.418 22.903 3.289 -23.724 180 90 9.729 0.699
771 1598.42 23.064 3.289 -23.718 180 92 9.714 0.673
772 1600.424 22.952 3.289 -23.723 180 94 9.722 0.647
773 1602.43 22.979 3.289 -23.722 180 96 9.708 0.682
774 1604.437 22.941 3.289 -23.724 180 98 9.607 0.71
775 1606.438 22.978 3.289 -23.72 180 100 9.607 0.657
776 1608.442 22.993 3.289 -23.718 180 102 9.563 0.72
777 1610.443 22.937 3.288 -23.719 180 104 9.484 0.698
778 1612.449 22.911 3.289 -23.718 180 106 9.406 0.694
779 1614.452 22.941 3.288 -23.724 180 108 9.377 0.633
780 1616.458 23.007 3.289 -23.715 180 110 9.239 0.68
781 1618.459 22.924 3.289 -23.722 180 112 9.122 0.652
782 1620.465 23.033 3.289 -23.718 180 114 8.962 0.689
783 1622.467 22.894 3.288 -23.716 180 116 8.851 0.645
784 1624.473 23.029 3.289 -23.717 180 118 8.686 0.684
785 1626.475 23.017 3.289 -23.719 180 120 8.613 0.697
786 1628.477 23.01 3.289 -23.72 180 122 8.432 0.656
787 1630.482 22.987 3.289 -23.718 180 124 8.191 0.699
788 1632.484 22.925 3.289 -23.718 180 126 8.033 0.697
789 1634.488 23.012 3.288 -23.72 180 128 7.835 0.714
790 1636.491 23.022 3.289 -23.722 180 130 7.611 0.687
791 1638.496 23.064 3.288 -23.722 180 132 7.411 0.683
792 1640.501 23.022 3.289 -23.722 180 134 7.115 0.71
793 1642.502 23.016 3.289 -23.719 180 136 6.996 0.703
794 1644.506 22.99 3.289 -23.721 180 138 6.615 0.672
795 1646.509 22.982 3.289 -23.72 180 140 6.471 0.698
796 1648.513 22.873 3.289 -23.722 180 142 6.181 0.669
797 1650.515 22.954 3.289 -23.719 180 144 5.911 0.659
798 1652.523 22.922 3.289 -23.715 180 146 5.664 0.682
799 1654.523 22.941 3.288 -23.725 180 148 5.341 0.68
800 1656.527 23.025 3.289 -23.718 180 150 5.073 0.665
801 1658.528 22.994 3.289 -23.725 180 152 4.751 0.683
802 1660.531 23.029 3.289 -23.719 180 154 4.416 0.705
803 1662.534 23.003 3.289 -23.72 180 156 4.139 0.669
804 1664.537 22.991 3.289 -23.723 180 158 3.796 0.708
805 1666.542 23 3.289 -23.721 180 160 3.48 0.662
806 1668.545 23.072 3.289 -23.711 180 162 3.125 0.67
807 1670.548 22.941 3.289 -23.722 180 164 2.871 0.722
808 1672.551 22.984 3.289 -23.721 180 166 2.466 0.679
809 1674.553 22.949 3.289 -23.72 180 168 2.16 0.676
810 1676.556 22.865 3.289 -23.721 180 170 1.882 0.667
811 1678.559 23.056 3.289 -23.72 180 172 1.555 0.679
812 1680.563 23.084 3.289 -23.724 180 174 1.236 0.673
813 1682.564 22.999 3.289 -23.721 180 176 0.98 0.681
814 1684.568 23.019 3.289 -23.721 180 178 0.71 0.685
815 1686.57 23.023 3.289 -23.72 180 180 0.778 0.696
816 1688.574 23.061 3.289 -23.72 180 178 0.743 0.708
817 1690.577 22.948 3.289 -23.714 180 176 0.936 0.683
818 1692.578 22.96 3.289 -23.722 180 174 1.243 0.657
819 1694.582 23.121 3.289 -23.719 180 172 1.492 0.683
820 1696.585 22.997 3.289 -23.721 180 170 1.858 0.679
821 1698.589 23.048 3.289 -23.722 180 168 2.137 0.686
822 1700.59 23.094 3.289 -23.717 180 166 2.471 0.677
823 1702.591 23.039 3.289 -23.717 180 164 2.841 0.669
824 1704.593 22.978 3.289 -23.727 180 162 3.083 0.663
825 1706.597 23.032 3.289 -23.723 180 160 3.473 0.665
826 1708.598 23.015 3.288 -23.724 180 158 3.765 0.683
827 1710.602 23.012 3.289 -23.719 180 156 4.119 0.659
828 1712.604 23.052 3.289 -23.717 180 154 4.412 0.677
829 1714.607 23.025 3.289 -23.718 180 152 4.744 0.707
830 1716.609 23 3.288 -23.721 180 150 5.071 0.688
831 1718.612 23.026 3.288 -23.721 180 148 5.257 0.68
832 1720.613 23.093 3.289 -23.722 180 146 5.649 0.72
833 1722.616 22.964 3.289 -23.715 180 144 5.841 0.726
834 1724.618 22.959 3.289 -23.723 180 142 6.185 0.702
835 1726.621 22.96 3.289 -23.72 180 140 6.426 0.663
836 1728.623 22.978 3.289 -23.718 180 138 6.723 0.688
837 1730.624 23.041 3.289 -23.717 180 136 6.984 0.69
838 1732.627 22.957 3.289 -23.718 180 134 7.17 0.672
839 1734.629 23.026 3.289 -23.723 180 132 7.414 0.721
840 1736.631 22.966 3.289 -23.72 180 130 7.69 0.707
841 1738.635 22.961 3.288 -23.718 180 128 7.831 0.677
842 1740.636 22.941 3.288 -23.723 180 126 7.992 0.685
843 1742.637 23.027 3.289 -23.723 180 124 8.241 0.705
844 1744.64 23.009 3.288 -23.715 180 122 8.365 0.697
845 1746.641 22.959 3.289 -23.72 180 120 8.586 0.721
846 1748.644 22.924 3.289 -23.716 180 118 8.717 0.676
847 1750.645 23.005 3.288 -23.72 180 116 8.825 0.686
848 1752.647 23.024 3.288 -23.717 180 114 9.02 0.711
849 1754.649 23.017 3.288 -23.722 180 112 9.117 0.623
850 1756.65 22.97 3.289 -23.722 180 110 9.183 0.734
851 1758.653 22.962 3.289 -23.722 180 108 9.315 0.687
852 1760.654 22.991 3.288 -23.724 180 106 9.369 0.72
853 1762.655 22.999 3.289 -23.72 180 104 9.397 0.708
854 1764.658 22.844 3.288 -23.717 180 102 9.519 0.705
855 1766.66 22.961 3.289 -23.723 180 100 9.535 0.712
856 1768.661 22.916 3.289 -23.71 180 98 9.644 0.652
857 1770.663 22.946 3.289 -23.722 180 96 9.663 0.693
858 1772.665 22.994 3.288 -23.724 180 94 9.682 0.696
859 1774.666 22.967 3.289 -23.72 180 92 9.704 0.67
860 1776.668 22.969 3.289 -23.72 180 90 9.622 0.716
861 1778.668 22.953 3.289 -23.718 180 88 9.735 0.731
862 1780.67 23.036 3.289 -23.717 180 86 9.727 0.624
863 1782.672 23.055 3.289 -23.715 180 84 9.71 0.67
864 1784.673 23.023 3.288 -23.722 180 82 9.657 0.74
865 1786.675 23.039 3.289 -23.715 180 80 9.663 0.749
866 1788.676 22.92 3.288 -23.716 180 78 9.59 0.605
867 1790.677 22.923 3.289 -23.723 180 76 9.549 0.689
868 1792.678 22.978 3.288 -23.715 180 74 9.359 0.672
869 1794.682 22.99 3.288 -23.717 180 72 9.355 0.698
870 1796.683 23.037 3.289 -23.715 180 70 9.301 0.744
871 1798.683 23.024 3.288 -23.72 180 68 9.208 0.679
872 1800.684 22.996 3.288 -23.72 180 66 9.093 0.697
873 1802.685 23.016 3.288 -23.725 180 64 8.938 0.672
874 1804.686 22.949 3.289 -23.723 180 62 8.817 0.61
875 1806.687 22.93 3.288 -23.718 180 60 8.675 0.673
876 1808.688 23.067 3.288 -23.724 180 58 8.493 0.697
877 1810.689 23.049 3.289 -23.721 180 56 8.296 0.693
878 1812.69 22.915 3.289 -23.716 180 54 8.204 0.695
879 1814.692 22.999 3.289 -23.717 180 52 8.003 0.665
880 1816.692 22.953 3.289 -23.716 180 50 7.784 0.732
881 1818.693 23.033 3.289 -23.719 180 48 7.63 0.695
882 1820.694 22.936 3.289 -23.722 180 46 7.405 0.719
883 1822.695 22.943 3.289 -23.716 180 44 7.255 0.646
884 1824.695 22.999 3.289 -23.715 180 42 6.98 0.691
885 1826.696 23.062 3.289 -23.718 180 40 6.736 0.709
886 1828.697 23.014 3.289 -23.716 180 38 6.401 0.669
887 1830.698 22.987 3.289 -23.722 180 36 6.083 0.681
888 1832.699 22.934 3.289 -23.722 180 34 5.843 0.689
889 1834.7 22.92 3.289 -23.724 180 32 5.572 0.699
890 1836.7 22.963 3.289 -23.721 180 30 5.283 0.68
891 1838.701 22.859 3.289 -23.724 180 28 4.907 0.692
892 1840.702 23.021 3.289 -23.714 180 26 4.606 0.741
893 1842.702 22.941 3.289 -23.722 180 24 4.288 0.691
894 1844.703 23.001 3.288 -23.718 180 22 3.883 0.668
895 1846.703 22.957 3.289 -23.716 180 20 3.581 0.699
896 1848.704 23.013 3.289 -23.722 180 18 3.272 0.68
897 1850.704 23.007 3.289 -23.723 180 16 2.894 0.7
898 1852.705 22.963 3.289 -23.718 180 14 2.608 0.687
899 1854.705 22.949 3.289 -23.721 180 12 2.238 0.68
900 1856.706 22.931 3.289 -23.723 180 10 2.003 0.672
901 1858.706 22.924 3.289 -23.717 180 8 1.649 0.681
902 1860.707 23.034 3.289 -23.719 180 6 1.254 0.691
903 1862.707 23.001 3.289 -23.717 180 4 1.013 0.664
904 1864.707 22.987 3.289 -23.719 180 2 0.773 0.682
905 1866.708 22.941 3.289 -23.718 180 0 0.692 0.662
